Time[ps]      Etot[eV]     Epot[eV]     Ekin[eV]    T[K]
0.0000      -17370.1474  -17370.4124       0.2650   227.8
0.2500      -17369.6568  -17370.0885       0.4317   371.1
0.5000      -17369.5405  -17370.2361       0.6956   598.0
0.7500      -17369.8919  -17370.1562       0.2644   227.2
1.0000      -17369.6336  -17370.0327       0.3991   343.0
1.2500      -17369.8556  -17370.0727       0.2170   186.5
1.5000      -17369.9240  -17370.1462       0.2222   191.0
1.7500      -17370.2291  -17370.4233       0.1942   166.9
2.0000      -17370.5915  -17370.8736       0.2821   242.5
2.2500      -17371.0295  -17371.3322       0.3027   260.2
2.5000      -17371.3657  -17371.7933       0.4276   367.6
2.7500      -17371.1732  -17371.6861       0.5129   440.9
3.0000      -17371.5211  -17371.8359       0.3148   270.6
3.2500      -17371.2095  -17371.6999       0.4904   421.6
3.5000      -17371.3918  -17371.7264       0.3346   287.6
3.7500      -17371.5553  -17371.7895       0.2343   201.4
4.0000      -17371.3972  -17371.7644       0.3672   315.6
4.2500      -17371.2896  -17371.6762       0.3866   332.3
4.5000      -17371.3422  -17371.7083       0.3661   314.7
4.7500      -17371.2559  -17371.7090       0.4531   389.5
5.0000      -17371.3248  -17371.7394       0.4146   356.4
5.2500      -17371.4075  -17371.6564       0.2489   213.9
5.5000      -17371.4185  -17371.7015       0.2831   243.3
5.7500      -17371.3652  -17371.7227       0.3576   307.4
6.0000      -17371.5178  -17371.8167       0.2988   256.9
6.2500      -17371.1946  -17371.6294       0.4348   373.7
6.5000      -17371.3681  -17371.7077       0.3395   291.9
6.7500      -17371.1133  -17371.6589       0.5456   469.0
7.0000      -17371.1470  -17371.6467       0.4997   429.6
7.2500      -17371.3483  -17371.6698       0.3215   276.4
7.5000      -17371.4991  -17371.7777       0.2786   239.5
7.7500      -17371.2232  -17371.5458       0.3226   277.3
8.0000      -17371.2950  -17371.7432       0.4482   385.3
8.2500      -17371.3197  -17371.6033       0.2836   243.8
8.5000      -17371.3238  -17371.6732       0.3494   300.4
8.7500      -17371.3502  -17371.7199       0.3697   317.8
9.0000      -17371.3663  -17371.7206       0.3543   304.6
9.2500      -17371.5937  -17371.7202       0.1266   108.8
9.5000      -17371.3779  -17371.6683       0.2903   249.6
9.7500      -17371.3470  -17371.6715       0.3245   279.0
10.0000     -17371.4154  -17371.6117       0.1963   168.7
10.2500     -17371.3113  -17371.6615       0.3502   301.0
10.5000     -17371.5005  -17371.7016       0.2011   172.9
10.7500     -17371.3368  -17371.7297       0.3929   337.7
11.0000     -17371.3369  -17371.7131       0.3763   323.4
11.2500     -17371.2241  -17371.6676       0.4435   381.2
11.5000     -17371.3787  -17371.6816       0.3029   260.4
11.7500     -17371.2131  -17371.6096       0.3966   340.9
12.0000     -17371.2322  -17371.7604       0.5282   454.0
12.2500     -17371.3429  -17371.7231       0.3802   326.8
12.5000     -17371.3718  -17371.7202       0.3484   299.5
12.7500     -17371.2609  -17371.6583       0.3974   341.6
13.0000     -17371.2271  -17371.7253       0.4981   428.2
13.2500     -17371.3190  -17371.7439       0.4249   365.2
13.5000     -17371.4092  -17371.7456       0.3364   289.2
13.7500     -17371.5469  -17371.7889       0.2420   208.0
14.0000     -17371.3035  -17371.6474       0.3438   295.6
14.2500     -17371.4018  -17371.6877       0.2860   245.8
14.5000     -17371.2682  -17371.6789       0.4107   353.0
14.7500     -17371.4458  -17371.7921       0.3464   297.7
15.0000     -17371.2344  -17371.7116       0.4772   410.2
15.2500     -17371.1572  -17371.6158       0.4586   394.2
15.5000     -17371.3644  -17371.6928       0.3284   282.3
15.7500     -17371.4274  -17371.6790       0.2516   216.3
16.0000     -17371.4037  -17371.6400       0.2363   203.2
16.2500     -17371.2625  -17371.6862       0.4236   364.1
16.5000     -17371.3998  -17371.7084       0.3086   265.3
16.7500     -17371.2606  -17371.6386       0.3780   324.9
17.0000     -17371.4805  -17371.7383       0.2578   221.6
17.2500     -17371.2665  -17371.6172       0.3507   301.4
17.5000     -17371.1914  -17371.6860       0.4946   425.2
17.7500     -17371.3006  -17371.7271       0.4264   366.6
18.0000     -17371.5269  -17371.7445       0.2177   187.1
18.2500     -17371.3355  -17371.7147       0.3792   326.0
18.5000     -17371.4570  -17371.7768       0.3197   274.8
18.7500     -17371.3667  -17371.7950       0.4284   368.2
19.0000     -17371.3126  -17371.7103       0.3977   341.8
19.2500     -17371.4909  -17371.7237       0.2328   200.1
19.5000     -17371.4637  -17371.7747       0.3110   267.3
19.7500     -17371.3611  -17371.6045       0.2435   209.3
20.0000     -17371.3425  -17371.6757       0.3332   286.4
20.2500     -17371.3871  -17371.7667       0.3797   326.4
20.5000     -17371.3140  -17371.7950       0.4810   413.4
20.7500     -17371.4262  -17371.7838       0.3576   307.4
21.0000     -17371.2961  -17371.6629       0.3668   315.3
21.2500     -17371.2720  -17371.6661       0.3940   338.7
21.5000     -17371.3293  -17371.7383       0.4090   351.6
21.7500     -17371.4337  -17371.7550       0.3213   276.2
22.0000     -17371.2799  -17371.7114       0.4314   370.9
22.2500     -17371.4464  -17371.6724       0.2260   194.3
22.5000     -17371.4039  -17371.7335       0.3296   283.3
22.7500     -17371.5410  -17371.7683       0.2273   195.4
23.0000     -17371.4152  -17371.7640       0.3488   299.9
23.2500     -17371.3469  -17371.7081       0.3612   310.5
23.5000     -17371.1905  -17371.6307       0.4403   378.5
23.7500     -17371.2954  -17371.6218       0.3264   280.5
24.0000     -17371.0668  -17371.6178       0.5509   473.6
24.2500     -17371.3280  -17371.6643       0.3363   289.1
24.5000     -17371.2933  -17371.7337       0.4404   378.6
24.7500     -17371.4241  -17371.6919       0.2678   230.2
25.0000     -17371.2202  -17371.6224       0.4022   345.8
25.2500     -17371.4423  -17371.6658       0.2234   192.0
25.5000     -17371.4116  -17371.7871       0.3756   322.8
25.7500     -17371.2954  -17371.6229       0.3275   281.5
26.0000     -17371.2304  -17371.7604       0.5300   455.6
26.2500     -17371.3934  -17371.6763       0.2829   243.2
26.5000     -17371.3309  -17371.6883       0.3574   307.2
26.7500     -17371.2855  -17371.6588       0.3733   320.9
27.0000     -17371.4387  -17371.6669       0.2282   196.1
27.2500     -17371.3244  -17371.6508       0.3264   280.6
27.5000     -17371.3701  -17371.6425       0.2725   234.2
27.7500     -17371.5005  -17371.7206       0.2201   189.2
28.0000     -17371.3165  -17371.5590       0.2425   208.5
28.2500     -17371.5869  -17371.7615       0.1746   150.1
28.5000     -17371.2641  -17371.6475       0.3834   329.6
28.7500     -17371.3203  -17371.6513       0.3310   284.5
29.0000     -17371.0970  -17371.4929       0.3959   340.3
29.2500     -17371.2365  -17371.5934       0.3568   306.7
29.5000     -17371.3204  -17371.6600       0.3395   291.9
29.7500     -17371.0998  -17371.6423       0.5425   466.3
30.0000     -17371.3157  -17371.6677       0.3520   302.6
30.2500     -17371.3577  -17371.6810       0.3232   277.9
30.5000     -17371.3818  -17371.6369       0.2551   219.3
30.7500     -17371.4755  -17371.7180       0.2425   208.5
31.0000     -17371.3613  -17371.6160       0.2547   218.9
31.2500     -17371.4300  -17371.6729       0.2429   208.8
31.5000     -17371.2617  -17371.6924       0.4308   370.3
31.7500     -17371.4106  -17371.7470       0.3364   289.2
32.0000     -17371.3588  -17371.6923       0.3335   286.7
32.2500     -17371.3275  -17371.6521       0.3246   279.0
32.5000     -17371.2550  -17371.6554       0.4004   344.2
32.7500     -17371.3497  -17371.7388       0.3891   334.5
33.0000     -17371.3052  -17371.6883       0.3831   329.3
33.2500     -17371.4275  -17371.6125       0.1850   159.0
33.5000     -17371.2973  -17371.6412       0.3439   295.6
33.7500     -17371.2182  -17371.6562       0.4380   376.5
34.0000     -17371.4502  -17371.6622       0.2120   182.2
34.2500     -17371.3834  -17371.6336       0.2502   215.1
34.5000     -17371.2393  -17371.7239       0.4846   416.5
34.7500     -17371.2067  -17371.7632       0.5565   478.4
35.0000     -17371.3396  -17371.5796       0.2400   206.3
35.2500     -17371.2633  -17371.6763       0.4130   355.0
35.5000     -17371.2168  -17371.5908       0.3740   321.5
35.7500     -17371.0910  -17371.4922       0.4011   344.8
36.0000     -17371.3155  -17371.6607       0.3452   296.8
36.2500     -17371.4563  -17371.7265       0.2702   232.3
36.5000     -17371.5307  -17371.7031       0.1725   148.3
36.7500     -17371.1806  -17371.4417       0.2612   224.5
37.0000     -17371.2221  -17371.5088       0.2866   246.4
37.2500     -17371.3964  -17371.7587       0.3623   311.4
37.5000     -17371.1791  -17371.6098       0.4307   370.2
37.7500     -17371.2600  -17371.6212       0.3612   310.5
38.0000     -17371.1817  -17371.5830       0.4013   345.0
38.2500     -17371.4021  -17371.6877       0.2856   245.5
38.5000     -17371.2697  -17371.6646       0.3948   339.4
38.7500     -17371.2736  -17371.7144       0.4408   378.9
39.0000     -17371.2138  -17371.6130       0.3992   343.2
39.2500     -17371.4279  -17371.7740       0.3461   297.5
39.5000     -17371.3021  -17371.6326       0.3305   284.1
39.7500     -17371.3561  -17371.5849       0.2289   196.7
40.0000     -17371.0446  -17371.4195       0.3749   322.3
