Time[ps]      Etot[eV]     Epot[eV]     Ekin[eV]    T[K]
0.0000      -17370.1501  -17370.4124       0.2622   225.4
0.2500      -17369.8256  -17370.2237       0.3981   342.2
0.5000      -17369.7873  -17370.1646       0.3772   324.3
0.7500      -17369.8955  -17370.2119       0.3164   272.0
1.0000      -17369.7689  -17370.0451       0.2762   237.4
1.2500      -17369.5234  -17369.8954       0.3720   319.8
1.5000      -17369.6367  -17370.1480       0.5113   439.5
1.7500      -17369.8606  -17370.2689       0.4084   351.0
2.0000      -17369.8061  -17370.1042       0.2981   256.3
2.2500      -17369.8638  -17370.4479       0.5840   502.0
2.5000      -17370.1010  -17370.3423       0.2413   207.4
2.7500      -17370.1904  -17370.4504       0.2600   223.5
3.0000      -17370.1080  -17370.3764       0.2684   230.7
3.2500      -17369.9507  -17370.3833       0.4326   371.9
3.5000      -17369.8746  -17370.2834       0.4088   351.4
3.7500      -17369.9688  -17370.3953       0.4265   366.6
4.0000      -17369.9440  -17370.2926       0.3486   299.7
4.2500      -17370.0720  -17370.4577       0.3858   331.6
4.5000      -17370.0856  -17370.4729       0.3872   332.9
4.7500      -17369.8543  -17370.4292       0.5748   494.1
5.0000      -17369.8709  -17370.2352       0.3643   313.2
5.2500      -17369.8381  -17370.2584       0.4204   361.3
5.5000      -17369.8443  -17370.1535       0.3092   265.8
5.7500      -17370.0588  -17370.3448       0.2860   245.8
6.0000      -17369.9867  -17370.4336       0.4469   384.2
6.2500      -17369.7417  -17370.3594       0.6177   530.9
6.5000      -17369.9770  -17370.2657       0.2886   248.1
6.7500      -17370.0841  -17370.3197       0.2357   202.6
7.0000      -17369.9620  -17370.5483       0.5863   503.9
7.2500      -17369.9871  -17370.3131       0.3260   280.2
7.5000      -17370.0446  -17370.4525       0.4079   350.6
7.7500      -17370.0672  -17370.3917       0.3245   278.9
8.0000      -17370.0861  -17370.2853       0.1991   171.2
8.2500      -17370.0565  -17370.2496       0.1931   166.0
8.5000      -17369.9694  -17370.3374       0.3680   316.4
8.7500      -17369.9347  -17370.2152       0.2805   241.2
9.0000      -17370.0810  -17370.3460       0.2649   227.7
9.2500      -17369.7153  -17370.1213       0.4060   349.0
9.5000      -17370.0114  -17370.3714       0.3600   309.5
9.7500      -17369.8459  -17370.3423       0.4964   426.7
10.0000     -17370.1416  -17370.4314       0.2898   249.1
10.2500     -17369.9306  -17370.3738       0.4433   381.0
10.5000     -17370.1891  -17370.4367       0.2476   212.9
10.7500     -17370.2426  -17370.4318       0.1892   162.6
11.0000     -17370.0155  -17370.2601       0.2445   210.2
11.2500     -17369.8747  -17370.3559       0.4811   413.6
11.5000     -17370.0167  -17370.3317       0.3149   270.7
11.7500     -17369.9232  -17370.2919       0.3687   317.0
12.0000     -17370.0006  -17370.4102       0.4096   352.1
12.2500     -17370.1379  -17370.3333       0.1954   168.0
12.5000     -17369.8291  -17370.3203       0.4912   422.3
12.7500     -17370.0718  -17370.3352       0.2633   226.4
13.0000     -17370.0489  -17370.4748       0.4258   366.0
13.2500     -17370.1013  -17370.3766       0.2753   236.6
13.5000     -17370.2290  -17370.4166       0.1876   161.2
13.7500     -17369.9917  -17370.3124       0.3206   275.6
14.0000     -17369.9377  -17370.4071       0.4693   403.4
14.2500     -17369.8381  -17370.3584       0.5204   447.3
14.5000     -17370.0509  -17370.3634       0.3125   268.6
14.7500     -17369.8829  -17370.3061       0.4232   363.8
15.0000     -17369.9407  -17370.2743       0.3337   286.8
15.2500     -17369.9075  -17370.1702       0.2626   225.8
15.5000     -17369.7891  -17370.3085       0.5194   446.4
15.7500     -17370.0355  -17370.3575       0.3220   276.8
16.0000     -17369.9181  -17370.2188       0.3006   258.4
16.2500     -17369.8890  -17370.4258       0.5368   461.4
16.5000     -17369.8415  -17370.1212       0.2796   240.4
16.7500     -17369.9384  -17370.3013       0.3629   311.9
17.0000     -17369.9460  -17370.3869       0.4409   379.0
17.2500     -17370.0363  -17370.3250       0.2887   248.1
17.5000     -17370.0049  -17370.2719       0.2670   229.5
17.7500     -17369.9316  -17370.4411       0.5095   437.9
18.0000     -17369.8676  -17370.2885       0.4208   361.7
18.2500     -17369.8306  -17370.2913       0.4607   396.0
18.5000     -17370.1780  -17370.3966       0.2185   187.9
18.7500     -17369.8299  -17370.2692       0.4393   377.6
19.0000     -17370.0226  -17370.2260       0.2034   174.9
19.2500     -17369.9536  -17370.1067       0.1531   131.6
19.5000     -17369.9434  -17370.2831       0.3397   292.0
19.7500     -17369.7462  -17370.2102       0.4640   398.8
20.0000     -17369.9224  -17370.2344       0.3120   268.2
20.2500     -17370.0557  -17370.3123       0.2566   220.6
20.5000     -17370.1406  -17370.3977       0.2571   221.0
20.7500     -17369.8928  -17370.2659       0.3731   320.7
21.0000     -17370.2660  -17370.5605       0.2945   253.1
21.2500     -17369.9678  -17370.3085       0.3407   292.9
21.5000     -17369.9567  -17370.2966       0.3399   292.2
21.7500     -17370.2244  -17370.3768       0.1524   131.0
22.0000     -17369.9528  -17370.3360       0.3832   329.4
22.2500     -17369.8444  -17370.3021       0.4578   393.5
22.5000     -17370.2001  -17370.3140       0.1138    97.9
22.7500     -17370.0702  -17370.4394       0.3691   317.3
23.0000     -17369.9435  -17370.2796       0.3362   289.0
23.2500     -17369.8526  -17370.1838       0.3312   284.7
23.5000     -17369.9547  -17370.4672       0.5125   440.5
23.7500     -17369.9846  -17370.3285       0.3439   295.6
24.0000     -17369.9405  -17370.4246       0.4841   416.1
24.2500     -17370.0495  -17370.3665       0.3170   272.5
24.5000     -17370.1809  -17370.4406       0.2597   223.2
24.7500     -17370.1063  -17370.3582       0.2520   216.6
25.0000     -17370.2069  -17370.4713       0.2644   227.3
25.2500     -17369.8846  -17370.2995       0.4149   356.6
25.5000     -17369.9417  -17370.3785       0.4368   375.5
25.7500     -17369.9394  -17370.3612       0.4218   362.6
26.0000     -17369.9065  -17370.3209       0.4144   356.2
26.2500     -17370.0600  -17370.2471       0.1871   160.8
26.5000     -17370.0436  -17370.3920       0.3484   299.5
26.7500     -17370.0289  -17370.3444       0.3155   271.2
27.0000     -17370.0561  -17370.3127       0.2565   220.5
27.2500     -17370.1030  -17370.4013       0.2982   256.4
27.5000     -17369.8938  -17370.3494       0.4556   391.7
27.7500     -17369.9095  -17370.1685       0.2591   222.7
28.0000     -17370.0915  -17370.4321       0.3406   292.8
28.2500     -17370.0673  -17370.4444       0.3771   324.1
28.5000     -17370.1852  -17370.4006       0.2154   185.2
28.7500     -17370.0635  -17370.4866       0.4231   363.7
29.0000     -17370.1490  -17370.4376       0.2886   248.1
29.2500     -17370.1000  -17370.4587       0.3587   308.3
29.5000     -17369.9638  -17370.4125       0.4487   385.7
29.7500     -17370.0437  -17370.3155       0.2718   233.6
30.0000     -17370.1216  -17370.3346       0.2130   183.1
30.2500     -17370.0773  -17370.3258       0.2485   213.6
30.5000     -17369.8075  -17370.3461       0.5386   462.9
30.7500     -17369.9843  -17370.2892       0.3049   262.1
31.0000     -17370.1304  -17370.3176       0.1872   160.9
31.2500     -17370.0280  -17370.5088       0.4808   413.3
31.5000     -17370.0111  -17370.4050       0.3940   338.7
31.7500     -17369.8452  -17370.2411       0.3958   340.3
32.0000     -17370.1247  -17370.4285       0.3038   261.2
32.2500     -17370.0216  -17370.2503       0.2287   196.6
32.5000     -17370.0466  -17370.3608       0.3143   270.1
32.7500     -17370.1838  -17370.3873       0.2035   174.9
33.0000     -17369.8381  -17370.3272       0.4891   420.4
33.2500     -17369.9496  -17370.2757       0.3262   280.4
33.5000     -17369.9987  -17370.4048       0.4061   349.1
33.7500     -17370.1809  -17370.4817       0.3008   258.5
34.0000     -17370.2642  -17370.4499       0.1857   159.6
34.2500     -17370.0968  -17370.3703       0.2735   235.1
34.5000     -17370.1090  -17370.4095       0.3005   258.3
34.7500     -17369.8747  -17370.2584       0.3838   329.9
35.0000     -17370.1249  -17370.5126       0.3877   333.3
35.2500     -17370.0501  -17370.4159       0.3658   314.4
35.5000     -17369.9807  -17370.4133       0.4326   371.9
35.7500     -17370.0476  -17370.3741       0.3265   280.7
36.0000     -17369.8954  -17370.3048       0.4094   351.9
36.2500     -17369.9744  -17370.4331       0.4587   394.3
36.5000     -17370.1418  -17370.4373       0.2955   254.0
36.7500     -17370.2654  -17370.5315       0.2661   228.7
37.0000     -17369.7725  -17370.3127       0.5402   464.3
37.2500     -17369.9317  -17370.2496       0.3179   273.3
37.5000     -17370.2403  -17370.5302       0.2899   249.2
37.7500     -17370.1500  -17370.3635       0.2135   183.5
38.0000     -17369.8280  -17370.3050       0.4770   410.0
38.2500     -17370.1705  -17370.5159       0.3454   296.9
38.5000     -17370.0925  -17370.4256       0.3331   286.3
38.7500     -17370.1035  -17370.5065       0.4030   346.4
39.0000     -17370.1246  -17370.4384       0.3138   269.8
39.2500     -17370.0641  -17370.4703       0.4062   349.1
39.5000     -17369.8710  -17370.3354       0.4644   399.2
39.7500     -17369.9426  -17370.2557       0.3131   269.1
40.0000     -17370.0406  -17370.3378       0.2972   255.5
