Time[ps]      Etot[eV]     Epot[eV]     Ekin[eV]    T[K]
0.0000      -17370.1077  -17370.4124       0.3047   261.9
0.2500      -17369.7107  -17370.2410       0.5303   455.9
0.5000      -17369.8130  -17370.1907       0.3777   324.7
0.7500      -17369.9367  -17370.1719       0.2352   202.2
1.0000      -17369.7740  -17370.1614       0.3874   333.0
1.2500      -17369.7796  -17370.0184       0.2389   205.3
1.5000      -17369.7688  -17370.0918       0.3231   277.7
1.7500      -17370.3339  -17370.6144       0.2805   241.1
2.0000      -17370.9593  -17371.2732       0.3139   269.8
2.2500      -17371.3553  -17371.6824       0.3271   281.1
2.5000      -17371.5714  -17371.8668       0.2955   254.0
2.7500      -17371.4040  -17371.7497       0.3457   297.2
3.0000      -17371.5155  -17371.9149       0.3994   343.3
3.2500      -17371.5476  -17371.9491       0.4015   345.1
3.5000      -17371.5271  -17371.9264       0.3994   343.3
3.7500      -17371.4672  -17371.8421       0.3748   322.2
4.0000      -17371.5594  -17371.9343       0.3749   322.2
4.2500      -17371.7125  -17371.9613       0.2488   213.9
4.5000      -17371.5246  -17371.8789       0.3544   304.6
4.7500      -17371.6824  -17371.9683       0.2859   245.8
5.0000      -17371.6571  -17371.9772       0.3201   275.2
5.2500      -17371.7339  -17371.9495       0.2156   185.3
5.5000      -17371.6969  -17372.0141       0.3172   272.7
5.7500      -17371.7122  -17372.0463       0.3340   287.1
6.0000      -17371.4200  -17371.7765       0.3565   306.4
6.2500      -17371.5446  -17371.8784       0.3338   287.0
6.5000      -17371.4590  -17371.9499       0.4909   422.0
6.7500      -17371.6662  -17371.9153       0.2491   214.1
7.0000      -17371.4478  -17371.8446       0.3968   341.1
7.2500      -17371.4015  -17371.8281       0.4266   366.7
7.5000      -17371.3853  -17371.7691       0.3838   329.9
7.7500      -17371.7804  -17371.9747       0.1943   167.0
8.0000      -17371.8205  -17371.9673       0.1469   126.2
8.2500      -17371.6612  -17371.9573       0.2961   254.6
8.5000      -17371.6774  -17371.9652       0.2878   247.4
8.7500      -17371.3030  -17371.7796       0.4766   409.7
9.0000      -17371.6485  -17371.9764       0.3280   281.9
9.2500      -17371.4120  -17371.9879       0.5759   495.1
9.5000      -17371.3141  -17371.8405       0.5265   452.5
9.7500      -17371.5129  -17371.8497       0.3368   289.5
10.0000     -17371.5436  -17371.9378       0.3942   338.8
10.2500     -17371.5599  -17371.8469       0.2870   246.7
10.5000     -17371.4542  -17371.8409       0.3867   332.4
10.7500     -17371.7618  -17372.0189       0.2572   221.0
11.0000     -17371.6371  -17372.0457       0.4087   351.3
11.2500     -17371.5753  -17371.9063       0.3310   284.5
11.5000     -17371.6636  -17371.9264       0.2628   225.9
11.7500     -17371.5652  -17371.8947       0.3294   283.2
12.0000     -17371.4673  -17371.8277       0.3604   309.8
12.2500     -17371.6052  -17371.9973       0.3921   337.0
12.5000     -17371.5477  -17371.8699       0.3222   277.0
12.7500     -17371.6576  -17371.9604       0.3028   260.2
13.0000     -17371.4663  -17371.9645       0.4981   428.2
13.2500     -17371.6405  -17371.9953       0.3548   305.0
13.5000     -17371.6670  -17371.8691       0.2020   173.7
13.7500     -17371.4650  -17371.9364       0.4715   405.3
14.0000     -17371.6635  -17371.9687       0.3052   262.3
14.2500     -17371.7012  -17371.9906       0.2894   248.8
14.5000     -17371.6358  -17371.9088       0.2730   234.7
14.7500     -17371.4869  -17371.8755       0.3886   334.0
15.0000     -17371.7176  -17371.9217       0.2041   175.5
15.2500     -17371.3380  -17371.9708       0.6327   543.9
15.5000     -17371.3799  -17371.6987       0.3188   274.1
15.7500     -17371.4115  -17371.8463       0.4347   373.7
16.0000     -17371.3641  -17371.7335       0.3695   317.6
16.2500     -17371.4687  -17371.8394       0.3706   318.6
16.5000     -17371.6540  -17372.0178       0.3638   312.7
16.7500     -17371.2167  -17371.6570       0.4403   378.5
17.0000     -17371.4939  -17372.0412       0.5473   470.5
17.2500     -17371.4224  -17371.9562       0.5338   458.8
17.5000     -17371.4017  -17371.8314       0.4297   369.4
17.7500     -17371.6300  -17371.9667       0.3367   289.5
18.0000     -17371.7696  -17371.9925       0.2230   191.6
18.2500     -17371.5334  -17371.9575       0.4242   364.6
18.5000     -17371.5320  -17371.9033       0.3713   319.1
18.7500     -17371.3932  -17371.9893       0.5961   512.4
19.0000     -17371.4055  -17371.7772       0.3717   319.5
19.2500     -17371.3878  -17371.7965       0.4087   351.3
19.5000     -17371.5383  -17371.7938       0.2554   219.6
19.7500     -17371.5165  -17371.9473       0.4308   370.3
20.0000     -17371.4610  -17371.8748       0.4137   355.6
20.2500     -17371.4741  -17371.8580       0.3839   330.0
20.5000     -17371.3028  -17371.6557       0.3529   303.3
20.7500     -17371.2731  -17371.6619       0.3889   334.3
21.0000     -17371.6281  -17371.9761       0.3480   299.1
21.2500     -17371.6496  -17372.0241       0.3745   321.9
21.5000     -17371.5201  -17371.8705       0.3504   301.2
21.7500     -17371.4124  -17371.8543       0.4420   379.9
22.0000     -17371.6669  -17371.9038       0.2370   203.7
22.2500     -17371.6606  -17371.9734       0.3128   268.9
22.5000     -17371.4955  -17371.9342       0.4387   377.1
22.7500     -17371.6854  -17372.0018       0.3164   272.0
23.0000     -17371.4320  -17371.7810       0.3490   300.0
23.2500     -17371.5933  -17371.9308       0.3375   290.1
23.5000     -17371.6749  -17371.8786       0.2037   175.1
23.7500     -17371.3838  -17371.8513       0.4676   401.9
24.0000     -17371.6016  -17372.1115       0.5099   438.3
24.2500     -17371.4751  -17371.8659       0.3908   335.9
24.5000     -17371.5737  -17371.8413       0.2676   230.0
24.7500     -17371.4227  -17371.8185       0.3958   340.2
25.0000     -17371.4556  -17371.8720       0.4164   357.9
25.2500     -17371.5130  -17371.7335       0.2204   189.5
25.5000     -17371.5798  -17371.9436       0.3638   312.7
25.7500     -17371.4972  -17371.9090       0.4119   354.0
26.0000     -17371.3665  -17371.7981       0.4316   371.0
26.2500     -17371.3801  -17371.8365       0.4564   392.3
26.5000     -17371.4260  -17371.8375       0.4115   353.7
26.7500     -17371.7694  -17372.0581       0.2887   248.1
27.0000     -17371.6575  -17371.9839       0.3264   280.6
27.2500     -17371.5309  -17372.0253       0.4944   424.9
27.5000     -17371.5819  -17371.8284       0.2464   211.8
27.7500     -17371.7534  -17372.0488       0.2953   253.9
28.0000     -17371.5556  -17371.8944       0.3387   291.2
28.2500     -17371.5286  -17371.9003       0.3717   319.5
28.5000     -17371.4522  -17371.9320       0.4798   412.5
28.7500     -17371.6339  -17371.8186       0.1847   158.7
29.0000     -17371.4536  -17371.8180       0.3644   313.3
29.2500     -17371.4918  -17371.8796       0.3878   333.3
29.5000     -17371.4009  -17371.9436       0.5427   466.5
29.7500     -17371.5067  -17371.9100       0.4033   346.7
30.0000     -17371.6121  -17371.9989       0.3867   332.4
30.2500     -17371.4305  -17371.8954       0.4649   399.6
30.5000     -17371.2449  -17371.6698       0.4249   365.2
30.7500     -17371.5468  -17371.9139       0.3671   315.6
31.0000     -17371.5150  -17371.9397       0.4247   365.1
31.2500     -17371.5584  -17371.9913       0.4329   372.1
31.5000     -17371.5311  -17371.9132       0.3821   328.5
31.7500     -17371.5843  -17371.8985       0.3142   270.1
32.0000     -17371.6925  -17371.9991       0.3066   263.5
32.2500     -17371.6122  -17371.8973       0.2851   245.1
32.5000     -17371.4071  -17371.7000       0.2929   251.7
32.7500     -17371.4672  -17371.8642       0.3971   341.3
33.0000     -17371.4921  -17371.7343       0.2422   208.2
33.2500     -17371.6180  -17371.8917       0.2737   235.3
33.5000     -17371.6796  -17372.0132       0.3336   286.8
33.7500     -17371.6617  -17371.8815       0.2198   188.9
34.0000     -17371.7302  -17371.9530       0.2228   191.5
34.2500     -17371.5303  -17371.8089       0.2787   239.5
34.5000     -17371.7093  -17371.9466       0.2373   204.0
34.7500     -17371.5950  -17371.9437       0.3486   299.7
35.0000     -17371.6914  -17371.9520       0.2607   224.1
35.2500     -17371.5451  -17371.9519       0.4068   349.7
35.5000     -17371.5546  -17371.9355       0.3809   327.5
35.7500     -17371.5156  -17371.8007       0.2851   245.1
36.0000     -17371.2607  -17371.8266       0.5660   486.5
36.2500     -17371.5415  -17371.9711       0.4296   369.3
36.5000     -17371.4723  -17371.8700       0.3977   341.9
36.7500     -17371.4162  -17371.8359       0.4197   360.7
37.0000     -17371.3526  -17371.7544       0.4019   345.5
37.2500     -17371.4952  -17371.8877       0.3925   337.4
37.5000     -17371.5638  -17371.8756       0.3117   268.0
37.7500     -17371.4406  -17371.9191       0.4785   411.3
38.0000     -17371.8035  -17372.0573       0.2538   218.1
38.2500     -17371.4741  -17371.9146       0.4405   378.7
38.5000     -17371.3659  -17371.8468       0.4809   413.4
38.7500     -17371.5038  -17371.9500       0.4462   383.6
39.0000     -17371.7349  -17372.0340       0.2990   257.0
39.2500     -17371.5307  -17371.9735       0.4428   380.6
39.5000     -17371.7224  -17372.0299       0.3075   264.4
39.7500     -17371.7148  -17371.9539       0.2390   205.5
40.0000     -17371.6977  -17371.9701       0.2724   234.2
