Time[ps]      Etot[eV]     Epot[eV]     Ekin[eV]    T[K]
0.0000      -17370.1394  -17370.4124       0.2730   234.6
0.2500      -17369.9829  -17370.2432       0.2603   223.7
0.5000      -17370.0121  -17370.3017       0.2896   249.0
0.7500      -17370.0378  -17370.2557       0.2179   187.3
1.0000      -17369.8371  -17370.1479       0.3108   267.2
1.2500      -17369.7386  -17370.1377       0.3991   343.1
1.5000      -17369.7777  -17370.1274       0.3497   300.6
1.7500      -17369.9022  -17370.3073       0.4051   348.3
2.0000      -17370.3358  -17370.6244       0.2887   248.1
2.2500      -17370.6381  -17370.9516       0.3135   269.5
2.5000      -17370.5317  -17370.9878       0.4560   392.0
2.7500      -17370.7079  -17370.9841       0.2761   237.4
3.0000      -17371.0667  -17371.3145       0.2478   213.0
3.2500      -17370.6638  -17371.1251       0.4613   396.5
3.5000      -17370.9975  -17371.2298       0.2323   199.7
3.7500      -17370.6950  -17371.1087       0.4138   355.7
4.0000      -17370.7166  -17371.0054       0.2888   248.2
4.2500      -17371.0521  -17371.2505       0.1984   170.6
4.5000      -17370.9452  -17371.2198       0.2746   236.1
4.7500      -17370.8470  -17371.1475       0.3005   258.3
5.0000      -17370.8156  -17371.2173       0.4017   345.3
5.2500      -17370.7229  -17371.0626       0.3397   292.0
5.5000      -17370.7549  -17371.0948       0.3399   292.2
5.7500      -17370.8869  -17371.1870       0.3000   257.9
6.0000      -17370.8033  -17371.1407       0.3374   290.1
6.2500      -17370.6785  -17371.2024       0.5239   450.3
6.5000      -17370.8793  -17371.2641       0.3848   330.8
6.7500      -17370.9443  -17371.1391       0.1948   167.4
7.0000      -17370.6673  -17371.0911       0.4237   364.2
7.2500      -17370.9190  -17371.1559       0.2370   203.7
7.5000      -17370.6358  -17371.1117       0.4760   409.1
7.7500      -17370.8757  -17371.3282       0.4526   389.0
8.0000      -17370.6345  -17371.1506       0.5161   443.6
8.2500      -17370.8295  -17370.9706       0.1411   121.3
8.5000      -17370.9334  -17371.2256       0.2922   251.2
8.7500      -17370.6437  -17371.0068       0.3631   312.1
9.0000      -17370.8729  -17371.1643       0.2914   250.5
9.2500      -17370.8442  -17371.1534       0.3092   265.8
9.5000      -17370.8597  -17371.2090       0.3493   300.3
9.7500      -17370.8119  -17371.0819       0.2699   232.0
10.0000     -17370.7046  -17371.0912       0.3866   332.3
10.2500     -17370.7755  -17371.0891       0.3136   269.6
10.5000     -17370.7719  -17371.2438       0.4719   405.6
10.7500     -17370.7324  -17371.1616       0.4292   369.0
11.0000     -17370.7053  -17371.0925       0.3872   332.9
11.2500     -17370.8089  -17371.0829       0.2740   235.6
11.5000     -17370.8468  -17371.1558       0.3090   265.6
11.7500     -17370.9758  -17371.2499       0.2741   235.6
12.0000     -17370.7723  -17371.0673       0.2950   253.6
12.2500     -17370.8764  -17371.1743       0.2980   256.1
12.5000     -17370.8222  -17371.1479       0.3257   280.0
12.7500     -17370.8645  -17371.1171       0.2527   217.2
13.0000     -17370.7156  -17371.1631       0.4474   384.6
13.2500     -17370.6175  -17371.1630       0.5455   468.9
13.5000     -17370.8651  -17371.1623       0.2972   255.4
13.7500     -17370.6726  -17371.1463       0.4736   407.1
14.0000     -17370.8377  -17371.2048       0.3671   315.5
14.2500     -17370.8013  -17371.1716       0.3704   318.4
14.5000     -17370.5615  -17371.0630       0.5015   431.1
14.7500     -17370.7719  -17371.0426       0.2707   232.7
15.0000     -17370.7909  -17371.0319       0.2409   207.1
15.2500     -17370.8392  -17371.0002       0.1609   138.3
15.5000     -17370.9185  -17371.1176       0.1991   171.1
15.7500     -17370.8079  -17371.1678       0.3600   309.4
16.0000     -17370.7753  -17371.2050       0.4296   369.3
16.2500     -17370.9025  -17371.1968       0.2943   253.0
16.5000     -17370.6731  -17371.1343       0.4612   396.5
16.7500     -17370.8935  -17371.1297       0.2362   203.1
17.0000     -17370.8217  -17371.0899       0.2682   230.6
17.2500     -17370.7802  -17371.1531       0.3729   320.6
17.5000     -17370.5146  -17371.0012       0.4865   418.2
17.7500     -17370.7034  -17371.0880       0.3846   330.6
18.0000     -17370.5662  -17370.9832       0.4170   358.5
18.2500     -17370.5066  -17370.8877       0.3812   327.6
18.5000     -17370.7446  -17371.0177       0.2731   234.8
18.7500     -17370.8714  -17371.1213       0.2499   214.8
19.0000     -17370.6970  -17371.0991       0.4021   345.7
19.2500     -17370.9030  -17371.2536       0.3506   301.4
19.5000     -17370.8134  -17371.1073       0.2939   252.6
19.7500     -17370.5050  -17370.9355       0.4306   370.1
20.0000     -17370.5685  -17370.9391       0.3706   318.5
20.2500     -17370.7257  -17371.0977       0.3720   319.7
20.5000     -17370.4260  -17370.8315       0.4055   348.6
20.7500     -17370.7449  -17371.0452       0.3003   258.2
21.0000     -17370.5819  -17370.9902       0.4083   351.0
21.2500     -17370.7429  -17371.1165       0.3737   321.2
21.5000     -17370.8657  -17371.2077       0.3421   294.0
21.7500     -17370.8068  -17371.1783       0.3715   319.4
22.0000     -17370.9148  -17371.1400       0.2252   193.6
22.2500     -17370.6236  -17371.1346       0.5110   439.2
22.5000     -17370.8820  -17371.2432       0.3612   310.5
22.7500     -17370.6562  -17371.1106       0.4544   390.6
23.0000     -17370.8446  -17371.2303       0.3857   331.5
23.2500     -17370.9845  -17371.2664       0.2819   242.3
23.5000     -17370.6430  -17371.0655       0.4225   363.2
23.7500     -17370.6548  -17370.9818       0.3271   281.1
24.0000     -17370.9072  -17371.2290       0.3218   276.6
24.2500     -17370.6821  -17371.0341       0.3520   302.5
24.5000     -17370.7135  -17371.0223       0.3089   265.5
24.7500     -17370.7391  -17371.1448       0.4057   348.8
25.0000     -17370.6407  -17370.9755       0.3348   287.8
25.2500     -17370.6741  -17371.1960       0.5219   448.6
25.5000     -17370.7385  -17371.1238       0.3853   331.2
25.7500     -17370.8121  -17371.0581       0.2460   211.5
26.0000     -17370.7248  -17371.0975       0.3726   320.3
26.2500     -17370.9802  -17371.1362       0.1560   134.1
26.5000     -17370.8285  -17371.0111       0.1826   157.0
26.7500     -17370.6985  -17371.1737       0.4752   408.5
27.0000     -17370.6402  -17370.9926       0.3524   302.9
27.2500     -17370.7651  -17371.1333       0.3683   316.6
27.5000     -17370.5551  -17370.8968       0.3417   293.7
27.7500     -17370.9816  -17371.2038       0.2222   191.0
28.0000     -17370.7759  -17371.1173       0.3414   293.5
28.2500     -17370.6949  -17371.0074       0.3125   268.7
28.5000     -17370.6607  -17371.0603       0.3995   343.4
28.7500     -17370.7979  -17371.0536       0.2558   219.9
29.0000     -17370.5942  -17370.9740       0.3798   326.5
29.2500     -17370.8693  -17371.1027       0.2334   200.7
29.5000     -17370.6713  -17371.0717       0.4005   344.2
29.7500     -17370.8160  -17371.2042       0.3882   333.7
30.0000     -17370.5798  -17371.0469       0.4671   401.5
30.2500     -17370.7586  -17371.0634       0.3048   262.0
30.5000     -17370.5922  -17371.0556       0.4634   398.3
30.7500     -17370.5762  -17370.8932       0.3170   272.5
31.0000     -17370.8167  -17371.1840       0.3673   315.7
31.2500     -17370.8361  -17371.0579       0.2218   190.6
31.5000     -17370.8071  -17371.2056       0.3985   342.5
31.7500     -17370.7500  -17371.0666       0.3166   272.1
32.0000     -17370.7177  -17371.0484       0.3306   284.2
32.2500     -17370.6942  -17371.0877       0.3935   338.3
32.5000     -17370.7602  -17371.0760       0.3158   271.5
32.7500     -17370.5566  -17371.0737       0.5171   444.5
33.0000     -17370.7985  -17371.0578       0.2593   222.9
33.2500     -17370.7421  -17371.0821       0.3400   292.2
33.5000     -17370.8065  -17371.1317       0.3252   279.5
33.7500     -17370.8577  -17371.2643       0.4066   349.5
34.0000     -17370.7884  -17371.1762       0.3878   333.3
34.2500     -17370.7404  -17371.0917       0.3513   302.0
34.5000     -17370.8343  -17371.0839       0.2497   214.6
34.7500     -17370.9068  -17371.1875       0.2807   241.3
35.0000     -17370.8556  -17371.2485       0.3929   337.7
35.2500     -17370.9241  -17371.1882       0.2641   227.0
35.5000     -17370.6691  -17371.0902       0.4211   362.0
35.7500     -17370.6654  -17371.1574       0.4920   422.9
36.0000     -17370.6253  -17371.2435       0.6182   531.4
36.2500     -17370.7134  -17371.1344       0.4211   361.9
36.5000     -17370.7394  -17371.1762       0.4368   375.5
36.7500     -17370.6490  -17370.9854       0.3365   289.2
37.0000     -17370.8590  -17371.1905       0.3315   285.0
37.2500     -17370.9126  -17371.1291       0.2165   186.1
37.5000     -17371.0173  -17371.3348       0.3176   273.0
37.7500     -17370.9925  -17371.2568       0.2644   227.3
38.0000     -17370.7586  -17371.2177       0.4591   394.7
38.2500     -17370.8378  -17371.2792       0.4415   379.5
38.5000     -17371.0110  -17371.2299       0.2189   188.2
38.7500     -17371.0196  -17371.2335       0.2139   183.9
39.0000     -17371.0991  -17371.2723       0.1732   148.8
39.2500     -17370.7833  -17371.1114       0.3281   282.0
39.5000     -17370.8938  -17371.1792       0.2855   245.4
39.7500     -17370.8534  -17371.1878       0.3344   287.5
40.0000     -17370.8665  -17371.1630       0.2965   254.9
