Time[ps]      Etot[eV]     Epot[eV]     Ekin[eV]    T[K]
0.0000      -17370.1772  -17370.4124       0.2352   202.1
0.2500      -17370.0482  -17370.2640       0.2159   185.5
0.5000      -17369.8100  -17370.2008       0.3908   336.0
0.7500      -17370.0910  -17370.2793       0.1883   161.9
1.0000      -17369.6179  -17369.8910       0.2732   234.8
1.2500      -17369.4551  -17369.8183       0.3632   312.2
1.5000      -17369.5012  -17369.9887       0.4875   419.0
1.7500      -17369.8064  -17370.2094       0.4030   346.4
2.0000      -17369.9988  -17370.4144       0.4156   357.2
2.2500      -17370.2149  -17370.4370       0.2221   190.9
2.5000      -17370.1969  -17370.6635       0.4666   401.1
2.7500      -17370.2555  -17370.5781       0.3225   277.2
3.0000      -17370.4091  -17370.6298       0.2207   189.7
3.2500      -17370.2501  -17370.5091       0.2590   222.7
3.5000      -17370.2758  -17370.6280       0.3521   302.7
3.7500      -17370.3467  -17370.5949       0.2483   213.4
4.0000      -17370.1466  -17370.5474       0.4007   344.5
4.2500      -17370.2756  -17370.6304       0.3548   305.0
4.5000      -17370.2307  -17370.4354       0.2047   176.0
4.7500      -17370.2791  -17370.5671       0.2880   247.5
5.0000      -17370.0349  -17370.4926       0.4577   393.4
5.2500      -17370.2857  -17370.5544       0.2687   231.0
5.5000      -17370.1274  -17370.5766       0.4492   386.1
5.7500      -17370.0235  -17370.4646       0.4411   379.2
6.0000      -17370.1403  -17370.5729       0.4326   371.9
6.2500      -17370.0503  -17370.5237       0.4734   406.9
6.5000      -17370.1564  -17370.5381       0.3817   328.1
6.7500      -17369.9700  -17370.5113       0.5413   465.3
7.0000      -17370.1219  -17370.6155       0.4936   424.3
7.2500      -17370.4666  -17370.6131       0.1465   125.9
7.5000      -17370.2168  -17370.5031       0.2863   246.1
7.7500      -17370.1471  -17370.3959       0.2488   213.9
8.0000      -17370.3119  -17370.6446       0.3327   286.0
8.2500      -17370.3117  -17370.6042       0.2925   251.4
8.5000      -17370.4143  -17370.6646       0.2502   215.1
8.7500      -17370.1891  -17370.6101       0.4210   361.9
9.0000      -17370.1949  -17370.6082       0.4133   355.2
9.2500      -17370.3061  -17370.6280       0.3220   276.8
9.5000      -17370.3299  -17370.6136       0.2837   243.9
9.7500      -17370.1709  -17370.4957       0.3249   279.3
10.0000     -17370.0335  -17370.5999       0.5664   486.9
10.2500     -17370.1433  -17370.4654       0.3221   276.8
10.5000     -17370.0956  -17370.5584       0.4628   397.9
10.7500     -17370.1483  -17370.5027       0.3544   304.7
11.0000     -17370.3633  -17370.5814       0.2180   187.4
11.2500     -17370.1884  -17370.5602       0.3717   319.5
11.5000     -17370.1063  -17370.5350       0.4286   368.5
11.7500     -17370.1952  -17370.5945       0.3993   343.2
12.0000     -17370.3470  -17370.6613       0.3143   270.1
12.2500     -17370.1967  -17370.5069       0.3102   266.7
12.5000     -17370.1722  -17370.5189       0.3467   298.0
12.7500     -17370.0819  -17370.5165       0.4347   373.6
13.0000     -17370.2011  -17370.4666       0.2655   228.2
13.2500     -17370.2779  -17370.6446       0.3667   315.2
13.5000     -17370.2377  -17370.5716       0.3339   287.0
13.7500     -17370.2029  -17370.6002       0.3972   341.5
14.0000     -17370.3382  -17370.6654       0.3272   281.3
14.2500     -17370.4496  -17370.7081       0.2585   222.2
14.5000     -17370.3034  -17370.6735       0.3702   318.2
14.7500     -17370.3707  -17370.6711       0.3004   258.2
15.0000     -17370.1868  -17370.4505       0.2637   226.7
15.2500     -17370.2719  -17370.5526       0.2807   241.3
15.5000     -17370.1648  -17370.4498       0.2851   245.0
15.7500     -17370.1112  -17370.5088       0.3976   341.8
16.0000     -17370.2191  -17370.5818       0.3627   311.8
16.2500     -17370.1638  -17370.6609       0.4972   427.4
16.5000     -17370.2817  -17370.5325       0.2508   215.5
16.7500     -17370.2530  -17370.6170       0.3640   312.9
17.0000     -17370.2617  -17370.5649       0.3032   260.6
17.2500     -17370.1592  -17370.6315       0.4723   406.0
17.5000     -17370.2884  -17370.6197       0.3313   284.8
17.7500     -17370.4935  -17370.6991       0.2057   176.8
18.0000     -17369.9028  -17370.3490       0.4462   383.5
18.2500     -17370.2800  -17370.5781       0.2981   256.3
18.5000     -17370.3056  -17370.6028       0.2972   255.5
18.7500     -17370.1624  -17370.5636       0.4013   344.9
19.0000     -17370.2567  -17370.5629       0.3062   263.2
19.2500     -17370.3523  -17370.6443       0.2919   250.9
19.5000     -17370.3282  -17370.5724       0.2442   209.9
19.7500     -17370.2795  -17370.6591       0.3796   326.3
20.0000     -17370.0599  -17370.5275       0.4676   402.0
20.2500     -17370.4386  -17370.6051       0.1665   143.1
20.5000     -17370.0539  -17370.5028       0.4490   385.9
20.7500     -17370.2589  -17370.5719       0.3130   269.0
21.0000     -17370.1106  -17370.5588       0.4482   385.3
21.2500     -17370.3183  -17370.6243       0.3060   263.0
21.5000     -17370.1874  -17370.4676       0.2802   240.8
21.7500     -17370.1978  -17370.6197       0.4218   362.6
22.0000     -17370.3830  -17370.5913       0.2083   179.1
22.2500     -17370.0460  -17370.3717       0.3258   280.0
22.5000     -17369.9664  -17370.3931       0.4267   366.8
22.7500     -17370.0499  -17370.3893       0.3395   291.8
23.0000     -17370.1570  -17370.5263       0.3693   317.4
23.2500     -17370.2947  -17370.5417       0.2470   212.3
23.5000     -17370.1715  -17370.4934       0.3219   276.7
23.7500     -17370.2620  -17370.5943       0.3323   285.7
24.0000     -17370.1624  -17370.4862       0.3238   278.4
24.2500     -17370.2888  -17370.5620       0.2732   234.9
24.5000     -17370.1869  -17370.6080       0.4211   362.0
24.7500     -17370.3805  -17370.6068       0.2263   194.5
25.0000     -17370.4055  -17370.6463       0.2408   207.0
25.2500     -17370.0997  -17370.5152       0.4154   357.1
25.5000     -17370.4005  -17370.6118       0.2113   181.6
25.7500     -17370.1634  -17370.5634       0.4000   343.9
26.0000     -17370.2903  -17370.6502       0.3599   309.4
26.2500     -17370.1437  -17370.4423       0.2986   256.7
26.5000     -17370.3293  -17370.6249       0.2956   254.1
26.7500     -17370.1984  -17370.5276       0.3293   283.0
27.0000     -17370.2658  -17370.6629       0.3971   341.4
27.2500     -17370.4132  -17370.6360       0.2227   191.5
27.5000     -17370.2383  -17370.5868       0.3485   299.6
27.7500     -17370.2199  -17370.5559       0.3359   288.8
28.0000     -17370.1449  -17370.5538       0.4089   351.5
28.2500     -17370.0029  -17370.4775       0.4746   408.0
28.5000     -17370.0201  -17370.5490       0.5289   454.6
28.7500     -17370.0294  -17370.4862       0.4568   392.6
29.0000     -17370.2899  -17370.6218       0.3318   285.2
29.2500     -17370.3901  -17370.6547       0.2646   227.4
29.5000     -17370.3101  -17370.5651       0.2550   219.2
29.7500     -17370.3642  -17370.6088       0.2446   210.3
30.0000     -17370.1811  -17370.5891       0.4079   350.7
30.2500     -17370.3500  -17370.6495       0.2995   257.5
30.5000     -17370.1075  -17370.6066       0.4991   429.0
30.7500     -17370.3445  -17370.5746       0.2301   197.8
31.0000     -17370.3417  -17370.6527       0.3111   267.4
31.2500     -17370.1121  -17370.5763       0.4642   399.0
31.5000     -17370.1057  -17370.5023       0.3966   340.9
31.7500     -17370.2724  -17370.6014       0.3290   282.8
32.0000     -17369.7864  -17370.2927       0.5063   435.2
32.2500     -17370.3273  -17370.7214       0.3941   338.7
32.5000     -17370.2123  -17370.5042       0.2919   250.9
32.7500     -17370.2317  -17370.5038       0.2721   233.9
33.0000     -17370.1783  -17370.4862       0.3079   264.7
33.2500     -17370.1716  -17370.5711       0.3995   343.4
33.5000     -17370.1963  -17370.5372       0.3409   293.0
33.7500     -17370.2576  -17370.5849       0.3273   281.4
34.0000     -17370.0854  -17370.5445       0.4591   394.6
34.2500     -17370.1541  -17370.4890       0.3349   287.9
34.5000     -17370.2649  -17370.5754       0.3104   266.8
34.7500     -17370.0163  -17370.6236       0.6073   522.0
35.0000     -17370.2641  -17370.5910       0.3269   281.0
35.2500     -17370.3512  -17370.6564       0.3052   262.4
35.5000     -17370.3693  -17370.6425       0.2733   234.9
35.7500     -17370.1727  -17370.5386       0.3659   314.5
36.0000     -17370.2404  -17370.5364       0.2960   254.5
36.2500     -17370.2849  -17370.6646       0.3797   326.4
36.5000     -17370.2118  -17370.5720       0.3602   309.6
36.7500     -17370.3148  -17370.7294       0.4146   356.4
37.0000     -17370.3242  -17370.5105       0.1863   160.2
37.2500     -17370.1752  -17370.5071       0.3320   285.3
37.5000     -17370.2636  -17370.5196       0.2560   220.0
37.7500     -17369.8680  -17370.5587       0.6908   593.8
38.0000     -17370.1471  -17370.4547       0.3076   264.4
38.2500     -17370.4143  -17370.5755       0.1611   138.5
38.5000     -17370.3612  -17370.6484       0.2872   246.9
38.7500     -17370.3425  -17370.6063       0.2638   226.7
39.0000     -17370.1048  -17370.6107       0.5059   434.9
39.2500     -17370.0637  -17370.4183       0.3546   304.8
39.5000     -17370.3977  -17370.6944       0.2967   255.1
39.7500     -17370.2674  -17370.4663       0.1989   171.0
40.0000     -17370.4190  -17370.6708       0.2519   216.5
