Time[ps]      Etot[eV]     Epot[eV]     Ekin[eV]    T[K]
0.0000      -17369.9233  -17370.4124       0.4891   420.4
0.2500      -17370.0737  -17370.3286       0.2549   219.1
0.5000      -17369.8711  -17370.2231       0.3520   302.6
0.7500      -17369.7349  -17370.2536       0.5187   445.9
1.0000      -17369.8566  -17370.1768       0.3202   275.2
1.2500      -17369.9770  -17370.1909       0.2139   183.9
1.5000      -17369.5197  -17369.8492       0.3295   283.3
1.7500      -17369.8030  -17370.0763       0.2733   235.0
2.0000      -17369.7520  -17370.1080       0.3560   306.0
2.2500      -17369.8070  -17370.1597       0.3527   303.1
2.5000      -17370.0832  -17370.3632       0.2800   240.7
2.7500      -17370.1893  -17370.5169       0.3276   281.6
3.0000      -17370.0077  -17370.4686       0.4610   396.2
3.2500      -17370.4154  -17370.5538       0.1384   119.0
3.5000      -17370.1334  -17370.4699       0.3365   289.3
3.7500      -17370.0343  -17370.4647       0.4303   369.9
4.0000      -17370.1288  -17370.4722       0.3434   295.2
4.2500      -17370.1823  -17370.6003       0.4181   359.4
4.5000      -17370.1397  -17370.5102       0.3705   318.5
4.7500      -17370.1384  -17370.5210       0.3826   328.8
5.0000      -17370.0585  -17370.4535       0.3950   339.5
5.2500      -17370.2695  -17370.5752       0.3057   262.7
5.5000      -17370.2938  -17370.5551       0.2613   224.6
5.7500      -17370.1047  -17370.5042       0.3995   343.4
6.0000      -17370.2628  -17370.4882       0.2255   193.8
6.2500      -17370.1336  -17370.5370       0.4034   346.8
6.5000      -17370.2146  -17370.4939       0.2793   240.1
6.7500      -17370.1632  -17370.4435       0.2804   241.0
7.0000      -17370.0205  -17370.3611       0.3407   292.9
7.2500      -17370.2621  -17370.5286       0.2665   229.1
7.5000      -17370.0412  -17370.4301       0.3889   334.3
7.7500      -17370.1913  -17370.4353       0.2440   209.8
8.0000      -17369.9976  -17370.4091       0.4115   353.7
8.2500      -17370.0323  -17370.5138       0.4815   413.9
8.5000      -17370.0361  -17370.5084       0.4723   406.0
8.7500      -17370.1898  -17370.5163       0.3264   280.6
9.0000      -17370.0907  -17370.4057       0.3151   270.8
9.2500      -17370.2793  -17370.5160       0.2367   203.5
9.5000      -17369.9920  -17370.3583       0.3664   314.9
9.7500      -17370.1087  -17370.4906       0.3819   328.3
10.0000     -17370.2438  -17370.5488       0.3050   262.2
10.2500     -17369.9125  -17370.2545       0.3420   294.0
10.5000     -17370.1636  -17370.4991       0.3355   288.4
10.7500     -17370.2580  -17370.5101       0.2521   216.7
11.0000     -17370.1629  -17370.5257       0.3628   311.9
11.2500     -17370.1951  -17370.4858       0.2908   249.9
11.5000     -17370.1920  -17370.4867       0.2947   253.3
11.7500     -17370.1063  -17370.4504       0.3441   295.8
12.0000     -17370.1415  -17370.4739       0.3324   285.7
12.2500     -17369.8484  -17370.3588       0.5104   438.7
12.5000     -17369.8218  -17370.1874       0.3657   314.3
12.7500     -17370.1320  -17370.4492       0.3172   272.6
13.0000     -17370.2014  -17370.5149       0.3135   269.4
13.2500     -17370.1696  -17370.4114       0.2419   207.9
13.5000     -17369.9588  -17370.3366       0.3778   324.8
13.7500     -17369.7886  -17370.3524       0.5638   484.6
14.0000     -17370.2511  -17370.5423       0.2913   250.4
14.2500     -17370.2000  -17370.5778       0.3778   324.8
14.5000     -17370.0652  -17370.4902       0.4250   365.3
14.7500     -17370.2321  -17370.4745       0.2425   208.4
15.0000     -17370.1942  -17370.4418       0.2476   212.8
15.2500     -17370.0092  -17370.4751       0.4658   400.4
15.5000     -17370.0568  -17370.3809       0.3241   278.6
15.7500     -17370.0363  -17370.4892       0.4530   389.4
16.0000     -17369.9925  -17370.3476       0.3551   305.2
16.2500     -17369.7962  -17370.3777       0.5815   499.9
16.5000     -17370.1509  -17370.4309       0.2799   240.6
16.7500     -17370.0820  -17370.4849       0.4029   346.3
17.0000     -17370.1356  -17370.4168       0.2811   241.7
17.2500     -17370.0714  -17370.4422       0.3708   318.8
17.5000     -17369.9824  -17370.4156       0.4332   372.4
17.7500     -17370.1827  -17370.4898       0.3071   264.0
18.0000     -17370.1371  -17370.4726       0.3355   288.4
18.2500     -17370.1449  -17370.4890       0.3440   295.7
18.5000     -17370.0566  -17370.5581       0.5014   431.0
18.7500     -17370.1099  -17370.5457       0.4357   374.6
19.0000     -17370.1554  -17370.4326       0.2772   238.3
19.2500     -17370.1392  -17370.3926       0.2534   217.8
19.5000     -17370.0609  -17370.3863       0.3255   279.8
19.7500     -17370.0609  -17370.3894       0.3286   282.4
20.0000     -17369.8589  -17370.3579       0.4990   428.9
20.2500     -17370.2735  -17370.5189       0.2454   210.9
20.5000     -17370.0733  -17370.4603       0.3870   332.6
20.7500     -17369.9304  -17370.4982       0.5678   488.1
21.0000     -17370.1609  -17370.5258       0.3649   313.7
21.2500     -17370.0630  -17370.4196       0.3566   306.5
21.5000     -17370.1639  -17370.5256       0.3617   310.9
21.7500     -17370.1983  -17370.4280       0.2297   197.5
22.0000     -17370.0576  -17370.3924       0.3348   287.8
22.2500     -17370.0713  -17370.4166       0.3453   296.8
22.5000     -17370.2229  -17370.5422       0.3193   274.5
22.7500     -17370.1180  -17370.3970       0.2790   239.8
23.0000     -17370.0194  -17370.3413       0.3219   276.7
23.2500     -17370.0993  -17370.5121       0.4128   354.8
23.5000     -17370.0672  -17370.4477       0.3805   327.1
23.7500     -17370.1854  -17370.4807       0.2953   253.9
24.0000     -17370.1449  -17370.4811       0.3362   289.0
24.2500     -17369.9704  -17370.3483       0.3779   324.8
24.5000     -17370.0198  -17370.3348       0.3150   270.8
24.7500     -17369.9616  -17370.4263       0.4647   399.4
25.0000     -17369.9967  -17370.4777       0.4810   413.5
25.2500     -17370.0261  -17370.4538       0.4276   367.6
25.5000     -17370.2780  -17370.4800       0.2021   173.7
25.7500     -17369.9156  -17370.2643       0.3486   299.7
26.0000     -17370.0937  -17370.4806       0.3869   332.6
26.2500     -17369.8497  -17370.3278       0.4781   411.0
26.5000     -17370.0869  -17370.4172       0.3303   283.9
26.7500     -17370.0419  -17370.3505       0.3087   265.3
27.0000     -17369.9997  -17370.4283       0.4286   368.5
27.2500     -17370.3104  -17370.5094       0.1991   171.1
27.5000     -17370.1843  -17370.4529       0.2686   230.9
27.7500     -17370.2267  -17370.4694       0.2427   208.6
28.0000     -17370.1642  -17370.5407       0.3766   323.7
28.2500     -17370.1010  -17370.4890       0.3881   333.6
28.5000     -17370.0966  -17370.3504       0.2539   218.2
28.7500     -17370.0173  -17370.4429       0.4256   365.8
29.0000     -17370.0895  -17370.4279       0.3384   290.9
29.2500     -17370.0635  -17370.3632       0.2997   257.6
29.5000     -17370.1229  -17370.5170       0.3941   338.8
29.7500     -17369.9691  -17370.3180       0.3489   299.9
30.0000     -17370.0844  -17370.5143       0.4299   369.6
30.2500     -17370.1953  -17370.4567       0.2614   224.7
30.5000     -17370.1466  -17370.4113       0.2647   227.5
30.7500     -17370.1242  -17370.5181       0.3940   338.7
31.0000     -17370.0373  -17370.5173       0.4800   412.6
31.2500     -17370.1246  -17370.4277       0.3031   260.6
31.5000     -17369.9251  -17370.3132       0.3881   333.6
31.7500     -17370.0543  -17370.4246       0.3703   318.3
32.0000     -17370.0973  -17370.5009       0.4036   347.0
32.2500     -17370.3259  -17370.5406       0.2146   184.5
32.5000     -17370.1666  -17370.5815       0.4148   356.6
32.7500     -17369.9895  -17370.1804       0.1909   164.1
33.0000     -17370.0068  -17370.3064       0.2995   257.5
33.2500     -17370.1445  -17370.4211       0.2766   237.8
33.5000     -17369.6175  -17369.9836       0.3660   314.7
33.7500     -17370.1910  -17370.4640       0.2730   234.7
34.0000     -17370.1784  -17370.4155       0.2371   203.8
34.2500     -17370.0260  -17370.3083       0.2823   242.7
34.5000     -17370.0453  -17370.3669       0.3216   276.4
34.7500     -17369.8276  -17370.1854       0.3579   307.6
35.0000     -17369.7806  -17370.2764       0.4958   426.2
35.2500     -17370.1713  -17370.5143       0.3429   294.8
35.5000     -17369.8891  -17370.3163       0.4272   367.2
35.7500     -17370.1830  -17370.4274       0.2444   210.1
36.0000     -17370.0498  -17370.4207       0.3709   318.8
36.2500     -17370.1341  -17370.3770       0.2429   208.8
36.5000     -17370.0157  -17370.3285       0.3128   268.9
36.7500     -17370.1490  -17370.4485       0.2995   257.5
37.0000     -17370.3058  -17370.4971       0.1913   164.5
37.2500     -17370.0489  -17370.4138       0.3650   313.7
37.5000     -17369.9901  -17370.4878       0.4977   427.8
37.7500     -17370.0246  -17370.4118       0.3872   332.9
38.0000     -17369.9946  -17370.4187       0.4241   364.5
38.2500     -17369.7695  -17370.2909       0.5213   448.1
38.5000     -17369.9034  -17370.2902       0.3868   332.5
38.7500     -17370.1883  -17370.5312       0.3430   294.8
39.0000     -17370.1622  -17370.3503       0.1881   161.7
39.2500     -17370.1311  -17370.4629       0.3318   285.2
39.5000     -17370.1496  -17370.4374       0.2878   247.4
39.7500     -17370.2926  -17370.4990       0.2064   177.4
40.0000     -17370.2046  -17370.5120       0.3074   264.2
