Time[ps]      Etot[eV]     Epot[eV]     Ekin[eV]    T[K]
0.0000      -17370.0134  -17370.4124       0.3990   343.0
0.2500      -17370.0061  -17370.3213       0.3152   271.0
0.5000      -17369.7337  -17370.2195       0.4859   417.6
0.7500      -17370.0437  -17370.3100       0.2663   228.9
1.0000      -17369.9973  -17370.3547       0.3574   307.2
1.2500      -17370.0231  -17370.3121       0.2890   248.5
1.5000      -17369.8046  -17370.1153       0.3108   267.1
1.7500      -17369.7157  -17370.0287       0.3130   269.1
2.0000      -17369.6476  -17370.0548       0.4073   350.1
2.2500      -17369.5703  -17370.0518       0.4814   413.8
2.5000      -17369.6262  -17369.9898       0.3635   312.5
2.7500      -17369.7882  -17370.0510       0.2628   225.9
3.0000      -17369.8102  -17370.0721       0.2618   225.1
3.2500      -17369.7087  -17370.1199       0.4112   353.5
3.5000      -17369.7012  -17370.0967       0.3955   340.0
3.7500      -17369.4794  -17369.8947       0.4153   357.0
4.0000      -17369.4694  -17369.9568       0.4874   419.0
4.2500      -17369.8985  -17370.1664       0.2679   230.3
4.5000      -17369.9087  -17370.1835       0.2748   236.2
4.7500      -17369.7630  -17370.1596       0.3966   340.9
5.0000      -17369.7790  -17370.0602       0.2812   241.7
5.2500      -17369.5942  -17370.0133       0.4191   360.3
5.5000      -17369.6967  -17370.0008       0.3040   261.4
5.7500      -17369.8588  -17370.1663       0.3074   264.3
6.0000      -17369.6489  -17370.0601       0.4112   353.5
6.2500      -17369.6717  -17370.0971       0.4254   365.7
6.5000      -17369.7071  -17369.9938       0.2867   246.4
6.7500      -17369.8244  -17370.0761       0.2516   216.3
7.0000      -17369.8172  -17370.0550       0.2378   204.4
7.2500      -17369.6703  -17370.0520       0.3817   328.1
7.5000      -17369.5349  -17369.9849       0.4499   386.7
7.7500      -17369.7439  -17369.9570       0.2131   183.2
8.0000      -17369.6744  -17370.0368       0.3625   311.6
8.2500      -17369.7714  -17369.9472       0.1758   151.1
8.5000      -17369.5592  -17370.0745       0.5153   442.9
8.7500      -17369.6007  -17370.0324       0.4317   371.1
9.0000      -17369.7284  -17370.0000       0.2716   233.5
9.2500      -17369.6435  -17370.0231       0.3796   326.3
9.5000      -17369.8314  -17370.0263       0.1948   167.5
9.7500      -17369.8695  -17370.0951       0.2255   193.9
10.0000     -17369.7856  -17370.1202       0.3346   287.6
10.2500     -17369.7939  -17370.1025       0.3086   265.3
10.5000     -17369.6404  -17369.9805       0.3401   292.4
10.7500     -17369.4150  -17370.0165       0.6015   517.1
11.0000     -17369.5597  -17369.9384       0.3787   325.5
11.2500     -17369.5640  -17369.9119       0.3479   299.1
11.5000     -17369.5996  -17369.9462       0.3465   297.9
11.7500     -17369.7402  -17369.9579       0.2178   187.2
12.0000     -17369.7996  -17370.0783       0.2787   239.6
12.2500     -17369.6828  -17369.9790       0.2962   254.6
12.5000     -17369.6813  -17370.0622       0.3809   327.4
12.7500     -17369.5795  -17369.9668       0.3873   333.0
13.0000     -17369.6305  -17369.9610       0.3305   284.1
13.2500     -17369.7812  -17370.0302       0.2491   214.1
13.5000     -17369.5719  -17369.9019       0.3300   283.7
13.7500     -17369.7720  -17370.0859       0.3139   269.9
14.0000     -17369.7067  -17369.9970       0.2903   249.5
14.2500     -17369.8616  -17370.1662       0.3046   261.8
14.5000     -17369.8474  -17370.0449       0.1976   169.8
14.7500     -17369.5473  -17369.9594       0.4121   354.3
15.0000     -17369.7150  -17370.0254       0.3103   266.8
15.2500     -17369.7118  -17369.9456       0.2338   201.0
15.5000     -17369.7448  -17369.9673       0.2225   191.3
15.7500     -17369.7590  -17370.0314       0.2724   234.2
16.0000     -17369.6790  -17370.0614       0.3824   328.7
16.2500     -17369.5670  -17369.9727       0.4057   348.7
16.5000     -17369.7909  -17370.0397       0.2488   213.9
16.7500     -17369.6833  -17369.9752       0.2919   251.0
17.0000     -17369.3799  -17369.8764       0.4965   426.8
17.2500     -17369.5991  -17369.9996       0.4005   344.3
17.5000     -17369.6274  -17369.8823       0.2549   219.1
17.7500     -17369.4395  -17369.9005       0.4609   396.2
18.0000     -17369.6374  -17369.8403       0.2028   174.3
18.2500     -17369.6166  -17369.9886       0.3720   319.8
18.5000     -17369.6401  -17369.8867       0.2466   212.0
18.7500     -17369.8043  -17370.0935       0.2892   248.6
19.0000     -17369.9048  -17370.0744       0.1696   145.8
19.2500     -17369.8036  -17370.0494       0.2459   211.4
19.5000     -17369.4776  -17369.9115       0.4339   373.0
19.7500     -17369.6667  -17370.1239       0.4573   393.1
20.0000     -17369.6194  -17369.9113       0.2920   251.0
20.2500     -17369.4592  -17369.7761       0.3169   272.4
20.5000     -17369.6239  -17369.9034       0.2795   240.2
20.7500     -17369.3559  -17369.7869       0.4310   370.5
21.0000     -17369.7134  -17370.0489       0.3355   288.4
21.2500     -17369.5117  -17369.9894       0.4777   410.6
21.5000     -17369.7967  -17370.0353       0.2387   205.1
21.7500     -17369.5759  -17370.0793       0.5034   432.7
22.0000     -17369.5275  -17369.8834       0.3559   305.9
22.2500     -17369.5008  -17369.8974       0.3966   340.9
22.5000     -17369.3716  -17369.8443       0.4727   406.4
22.7500     -17369.5668  -17369.9087       0.3418   293.8
23.0000     -17369.7320  -17369.9856       0.2536   218.0
23.2500     -17369.5289  -17369.9164       0.3875   333.1
23.5000     -17369.6841  -17370.0696       0.3854   331.3
23.7500     -17369.5847  -17369.9400       0.3553   305.4
24.0000     -17369.6069  -17370.0355       0.4286   368.4
24.2500     -17369.4970  -17369.7859       0.2889   248.4
24.5000     -17369.5594  -17369.9159       0.3565   306.5
24.7500     -17369.7359  -17370.0320       0.2961   254.6
25.0000     -17369.6463  -17370.0382       0.3919   336.9
25.2500     -17369.6218  -17370.0164       0.3946   339.2
25.5000     -17369.6896  -17370.0620       0.3724   320.1
25.7500     -17369.7361  -17370.0476       0.3114   267.7
26.0000     -17369.8042  -17370.1010       0.2967   255.1
26.2500     -17369.6885  -17369.8816       0.1931   166.0
26.5000     -17369.5095  -17369.8980       0.3884   333.9
26.7500     -17369.8110  -17370.1354       0.3244   278.8
27.0000     -17369.3922  -17369.9124       0.5202   447.1
27.2500     -17369.7358  -17370.0805       0.3448   296.4
27.5000     -17369.5138  -17370.0131       0.4993   429.2
27.7500     -17369.7382  -17370.0469       0.3088   265.4
28.0000     -17369.7705  -17370.0473       0.2768   238.0
28.2500     -17369.6597  -17369.9827       0.3229   277.6
28.5000     -17369.7166  -17369.9812       0.2646   227.5
28.7500     -17369.5948  -17370.1276       0.5328   458.0
29.0000     -17369.3247  -17369.9501       0.6254   537.6
29.2500     -17369.5226  -17370.0240       0.5014   431.0
29.5000     -17369.4915  -17369.9154       0.4239   364.4
29.7500     -17369.6588  -17370.1092       0.4504   387.1
30.0000     -17369.7452  -17370.0499       0.3047   261.9
30.2500     -17369.9637  -17370.1925       0.2288   196.7
30.5000     -17369.5838  -17369.9237       0.3399   292.1
30.7500     -17369.7826  -17370.0604       0.2778   238.8
31.0000     -17369.7056  -17370.0733       0.3677   316.1
31.2500     -17369.5918  -17370.0003       0.4084   351.1
31.5000     -17369.5538  -17370.0042       0.4505   387.2
31.7500     -17369.5661  -17369.7804       0.2143   184.2
32.0000     -17369.8704  -17370.1715       0.3011   258.8
32.2500     -17369.7204  -17369.9721       0.2517   216.4
32.5000     -17369.7564  -17370.0381       0.2817   242.2
32.7500     -17369.6707  -17370.0685       0.3978   342.0
33.0000     -17369.7776  -17370.0469       0.2693   231.5
33.2500     -17369.4810  -17369.7879       0.3070   263.9
33.5000     -17369.7471  -17370.0721       0.3250   279.4
33.7500     -17369.7466  -17370.0046       0.2580   221.8
34.0000     -17369.7324  -17370.0898       0.3574   307.2
34.2500     -17369.6820  -17370.0226       0.3406   292.8
34.5000     -17369.6513  -17369.9122       0.2610   224.3
34.7500     -17369.5031  -17369.9837       0.4806   413.1
35.0000     -17369.6396  -17369.9374       0.2977   255.9
35.2500     -17369.4916  -17369.9194       0.4279   367.8
35.5000     -17369.7956  -17370.0784       0.2828   243.1
35.7500     -17369.8280  -17370.0609       0.2329   200.2
36.0000     -17369.6358  -17369.9376       0.3018   259.4
36.2500     -17369.6890  -17370.0315       0.3425   294.4
36.5000     -17369.6563  -17370.0480       0.3916   336.6
36.7500     -17369.4211  -17370.0233       0.6022   517.6
37.0000     -17369.6125  -17369.9748       0.3623   311.5
37.2500     -17369.7562  -17370.0991       0.3428   294.7
37.5000     -17369.8157  -17370.1430       0.3273   281.4
37.7500     -17369.6360  -17369.9914       0.3555   305.5
38.0000     -17369.5334  -17369.8829       0.3495   300.4
38.2500     -17369.5874  -17369.9602       0.3728   320.4
38.5000     -17369.4440  -17369.8040       0.3600   309.5
38.7500     -17369.7465  -17370.0616       0.3152   270.9
39.0000     -17369.6779  -17370.0350       0.3570   306.9
39.2500     -17369.5767  -17369.9705       0.3938   338.5
39.5000     -17369.6837  -17370.0225       0.3389   291.3
39.7500     -17369.6599  -17369.9324       0.2725   234.2
40.0000     -17369.3833  -17369.7384       0.3551   305.2
