Time[ps]      Etot[eV]     Epot[eV]     Ekin[eV]    T[K]
0.0000      -17370.0589  -17370.4124       0.3535   303.9
0.2500      -17369.9311  -17370.2942       0.3631   312.1
0.5000      -17369.9299  -17370.3100       0.3800   326.7
0.7500      -17370.0185  -17370.2967       0.2781   239.1
1.0000      -17369.9586  -17370.2983       0.3397   292.0
1.2500      -17369.9800  -17370.2783       0.2983   256.4
1.5000      -17369.7848  -17370.2180       0.4332   372.4
1.7500      -17369.6366  -17370.0953       0.4587   394.3
2.0000      -17370.0947  -17370.2778       0.1830   157.3
2.2500      -17369.7205  -17370.0880       0.3675   315.9
2.5000      -17369.9408  -17370.2111       0.2702   232.3
2.7500      -17369.9155  -17370.2228       0.3073   264.2
3.0000      -17369.7797  -17370.0702       0.2905   249.7
3.2500      -17369.9446  -17370.2211       0.2765   237.7
3.5000      -17369.9572  -17370.1972       0.2400   206.3
3.7500      -17369.7610  -17370.1532       0.3922   337.1
4.0000      -17369.7910  -17370.0878       0.2968   255.1
4.2500      -17369.7485  -17370.1663       0.4177   359.1
4.5000      -17369.7701  -17370.2375       0.4675   401.8
4.7500      -17369.8330  -17370.1163       0.2833   243.6
5.0000      -17369.6419  -17370.0739       0.4320   371.3
5.2500      -17369.8832  -17370.1497       0.2665   229.1
5.5000      -17369.8775  -17370.1488       0.2713   233.2
5.7500      -17369.8997  -17370.1845       0.2849   244.9
6.0000      -17369.7932  -17370.1079       0.3147   270.5
6.2500      -17369.9478  -17370.2254       0.2777   238.7
6.5000      -17369.9307  -17370.1765       0.2458   211.3
6.7500      -17369.7625  -17370.1104       0.3480   299.1
7.0000      -17369.8873  -17370.2777       0.3904   335.6
7.2500      -17369.8722  -17370.1590       0.2868   246.5
7.5000      -17369.9360  -17370.1734       0.2375   204.1
7.7500      -17369.6099  -17370.1507       0.5407   464.8
8.0000      -17369.8872  -17370.1811       0.2939   252.7
8.2500      -17369.8332  -17370.1807       0.3475   298.7
8.5000      -17369.8848  -17370.1389       0.2540   218.4
8.7500      -17369.8057  -17370.1746       0.3689   317.1
9.0000      -17369.7977  -17370.1938       0.3962   340.5
9.2500      -17369.8143  -17370.1143       0.3000   257.9
9.5000      -17369.8009  -17370.2153       0.4143   356.2
9.7500      -17369.6116  -17370.2097       0.5981   514.1
10.0000     -17369.9303  -17370.1333       0.2031   174.6
10.2500     -17369.8329  -17370.1220       0.2891   248.5
10.5000     -17369.9047  -17370.2316       0.3269   281.0
10.7500     -17369.8059  -17370.0942       0.2883   247.8
11.0000     -17369.7097  -17370.0100       0.3003   258.1
11.2500     -17369.8575  -17370.1585       0.3010   258.8
11.5000     -17369.8712  -17370.0755       0.2043   175.7
11.7500     -17369.6307  -17370.1347       0.5041   433.3
12.0000     -17370.0242  -17370.2439       0.2196   188.8
12.2500     -17369.6585  -17370.1592       0.5007   430.4
12.5000     -17369.7686  -17370.1705       0.4019   345.5
12.7500     -17369.8849  -17370.1134       0.2285   196.4
13.0000     -17369.9166  -17370.1206       0.2040   175.3
13.2500     -17369.5107  -17370.0327       0.5220   448.7
13.5000     -17369.7901  -17370.0892       0.2991   257.1
13.7500     -17369.6498  -17370.0710       0.4211   362.0
14.0000     -17369.5415  -17369.9102       0.3688   317.0
14.2500     -17369.7780  -17370.0681       0.2900   249.3
14.5000     -17369.6636  -17370.1563       0.4927   423.5
14.7500     -17369.8525  -17370.1494       0.2969   255.2
15.0000     -17369.7033  -17370.0663       0.3630   312.1
15.2500     -17369.9332  -17370.2352       0.3020   259.6
15.5000     -17369.8346  -17370.0457       0.2111   181.5
15.7500     -17369.6644  -17370.0682       0.4039   347.2
16.0000     -17369.8750  -17370.2245       0.3495   300.4
16.2500     -17369.9729  -17370.2972       0.3243   278.8
16.5000     -17369.6614  -17370.0015       0.3401   292.4
16.7500     -17369.7875  -17370.1306       0.3431   294.9
17.0000     -17369.9676  -17370.2800       0.3123   268.5
17.2500     -17369.6840  -17370.0108       0.3268   280.9
17.5000     -17369.6487  -17370.0616       0.4129   354.9
17.7500     -17369.5959  -17370.0725       0.4765   409.6
18.0000     -17369.8135  -17370.0900       0.2765   237.7
18.2500     -17369.7617  -17370.1374       0.3757   323.0
18.5000     -17369.6431  -17370.1813       0.5381   462.6
18.7500     -17369.7312  -17370.1774       0.4463   383.6
19.0000     -17369.7656  -17370.0953       0.3297   283.4
19.2500     -17369.7477  -17369.9616       0.2139   183.9
19.5000     -17369.6465  -17370.0103       0.3638   312.7
19.7500     -17369.6692  -17369.9925       0.3233   277.9
20.0000     -17369.8937  -17370.1863       0.2926   251.5
20.2500     -17369.7535  -17370.1229       0.3695   317.6
20.5000     -17370.0062  -17370.2484       0.2422   208.2
20.7500     -17369.9911  -17370.1943       0.2032   174.7
21.0000     -17369.8311  -17370.1683       0.3372   289.8
21.2500     -17369.9614  -17370.2339       0.2725   234.2
21.5000     -17369.7552  -17370.1512       0.3960   340.4
21.7500     -17369.5427  -17370.0366       0.4939   424.5
22.0000     -17370.0101  -17370.1682       0.1582   136.0
22.2500     -17369.8622  -17370.1054       0.2432   209.1
22.5000     -17369.8736  -17370.1821       0.3084   265.1
22.7500     -17369.6791  -17370.0942       0.4150   356.8
23.0000     -17369.6224  -17369.9035       0.2810   241.6
23.2500     -17369.4768  -17369.9173       0.4405   378.6
23.5000     -17369.6536  -17370.1248       0.4712   405.0
23.7500     -17369.6435  -17370.1603       0.5167   444.2
24.0000     -17369.7209  -17370.1652       0.4442   381.8
24.2500     -17369.8347  -17370.1376       0.3028   260.3
24.5000     -17369.7840  -17370.0790       0.2950   253.6
24.7500     -17369.7180  -17370.0571       0.3391   291.5
25.0000     -17369.6590  -17370.0189       0.3600   309.4
25.2500     -17369.7002  -17369.9641       0.2639   226.9
25.5000     -17369.8374  -17370.1403       0.3029   260.4
25.7500     -17369.8064  -17370.1553       0.3488   299.8
26.0000     -17369.8111  -17370.1204       0.3093   265.8
26.2500     -17369.6662  -17369.9619       0.2957   254.2
26.5000     -17369.6212  -17370.0042       0.3830   329.2
26.7500     -17369.3733  -17369.8090       0.4357   374.6
27.0000     -17369.4614  -17369.9151       0.4537   390.0
27.2500     -17369.9024  -17370.1021       0.1997   171.7
27.5000     -17369.9630  -17370.1437       0.1807   155.3
27.7500     -17369.7017  -17370.0469       0.3452   296.8
28.0000     -17369.5635  -17369.8850       0.3215   276.4
28.2500     -17369.8341  -17370.0739       0.2398   206.1
28.5000     -17369.7753  -17370.1131       0.3377   290.3
28.7500     -17369.8595  -17370.0693       0.2098   180.4
29.0000     -17369.7686  -17370.1014       0.3328   286.1
29.2500     -17369.6513  -17369.9561       0.3048   262.0
29.5000     -17369.7766  -17370.1108       0.3342   287.3
29.7500     -17369.7085  -17369.9271       0.2186   187.9
30.0000     -17369.8371  -17370.1536       0.3165   272.1
30.2500     -17369.7633  -17370.1037       0.3404   292.6
30.5000     -17369.7509  -17370.0698       0.3188   274.1
30.7500     -17369.8299  -17370.0254       0.1955   168.1
31.0000     -17369.4545  -17369.8861       0.4316   371.0
31.2500     -17369.5517  -17369.9900       0.4383   376.8
31.5000     -17369.7090  -17369.9750       0.2661   228.7
31.7500     -17369.6920  -17370.1622       0.4702   404.2
32.0000     -17369.8545  -17370.2651       0.4105   352.9
32.2500     -17369.5905  -17369.9074       0.3169   272.4
32.5000     -17369.7099  -17370.1714       0.4615   396.7
32.7500     -17369.7144  -17370.0437       0.3293   283.0
33.0000     -17369.6986  -17370.1635       0.4649   399.6
33.2500     -17369.7930  -17370.0288       0.2357   202.6
33.5000     -17369.8218  -17370.0774       0.2556   219.7
33.7500     -17369.5610  -17369.9818       0.4208   361.7
34.0000     -17369.6341  -17370.2037       0.5696   489.6
34.2500     -17369.8311  -17370.1108       0.2797   240.4
34.5000     -17369.5034  -17369.8260       0.3226   277.3
34.7500     -17369.6217  -17370.1744       0.5527   475.1
35.0000     -17369.6218  -17370.1125       0.4907   421.8
35.2500     -17369.6580  -17369.9315       0.2735   235.1
35.5000     -17369.8083  -17370.0528       0.2445   210.2
35.7500     -17369.7145  -17370.0625       0.3479   299.1
36.0000     -17369.5649  -17370.0546       0.4897   421.0
36.2500     -17369.8477  -17370.1356       0.2878   247.4
36.5000     -17369.7644  -17370.0938       0.3294   283.2
36.7500     -17369.6703  -17370.1897       0.5194   446.4
37.0000     -17370.0022  -17370.2019       0.1997   171.7
37.2500     -17369.7926  -17370.1402       0.3477   298.9
37.5000     -17369.7441  -17370.0185       0.2743   235.8
37.7500     -17369.7586  -17370.0762       0.3175   273.0
38.0000     -17369.6776  -17370.0210       0.3434   295.2
38.2500     -17369.6921  -17370.0911       0.3990   343.0
38.5000     -17369.7196  -17370.0046       0.2849   244.9
38.7500     -17369.7091  -17370.1169       0.4078   350.6
39.0000     -17369.7849  -17370.1509       0.3660   314.6
39.2500     -17369.4864  -17370.0155       0.5290   454.8
39.5000     -17369.8485  -17370.1086       0.2601   223.6
39.7500     -17369.7917  -17370.1403       0.3486   299.6
40.0000     -17369.5923  -17370.0810       0.4887   420.1
