Time[ps]      Etot[eV]     Epot[eV]     Ekin[eV]    T[K]
0.0000      -17370.1183  -17370.4124       0.2941   252.8
0.2500      -17369.8461  -17370.2380       0.3919   336.9
0.5000      -17369.9677  -17370.2482       0.2805   241.1
0.7500      -17369.7546  -17370.2307       0.4761   409.2
1.0000      -17369.7812  -17370.3354       0.5542   476.4
1.2500      -17369.7480  -17370.1478       0.3997   343.6
1.5000      -17369.8158  -17370.2146       0.3988   342.8
1.7500      -17369.8467  -17370.0755       0.2288   196.7
2.0000      -17369.8160  -17370.1906       0.3746   322.0
2.2500      -17369.9557  -17370.2391       0.2834   243.6
2.5000      -17370.2245  -17370.6812       0.4567   392.5
2.7500      -17370.3841  -17370.7766       0.3924   337.3
3.0000      -17370.3763  -17370.7142       0.3378   290.4
3.2500      -17370.2862  -17370.6051       0.3189   274.1
3.5000      -17370.1726  -17370.6694       0.4968   427.0
3.7500      -17370.4923  -17370.7862       0.2939   252.6
4.0000      -17370.3602  -17370.7338       0.3735   321.1
4.2500      -17370.3279  -17370.7025       0.3746   322.0
4.5000      -17370.3946  -17370.7091       0.3145   270.3
4.7500      -17370.4612  -17370.7573       0.2961   254.5
5.0000      -17370.4725  -17370.7449       0.2724   234.2
5.2500      -17370.3348  -17370.6889       0.3541   304.4
5.5000      -17370.2466  -17370.7650       0.5184   445.6
5.7500      -17370.5660  -17370.7441       0.1782   153.1
6.0000      -17370.4524  -17370.7909       0.3385   291.0
6.2500      -17370.2511  -17370.6426       0.3916   336.6
6.5000      -17370.4573  -17370.7824       0.3251   279.5
6.7500      -17370.2326  -17370.5962       0.3636   312.6
7.0000      -17370.3637  -17370.7328       0.3691   317.2
7.2500      -17370.2492  -17370.5726       0.3234   278.0
7.5000      -17370.4348  -17370.7294       0.2946   253.2
7.7500      -17370.3269  -17370.6756       0.3487   299.7
8.0000      -17370.0264  -17370.4195       0.3931   337.9
8.2500      -17370.3690  -17370.6950       0.3260   280.2
8.5000      -17370.4042  -17370.7652       0.3610   310.3
8.7500      -17370.2717  -17370.5377       0.2660   228.7
9.0000      -17370.2018  -17370.6387       0.4369   375.6
9.2500      -17370.4386  -17370.7967       0.3581   307.8
9.5000      -17370.1196  -17370.5999       0.4803   412.8
9.7500      -17370.2771  -17370.5555       0.2785   239.4
10.0000     -17370.4330  -17370.7283       0.2953   253.9
10.2500     -17370.5111  -17370.6780       0.1668   143.4
10.5000     -17370.4051  -17370.7349       0.3299   283.5
10.7500     -17370.2706  -17370.6220       0.3514   302.1
11.0000     -17370.3579  -17370.6845       0.3266   280.7
11.2500     -17370.3021  -17370.5682       0.2660   228.7
11.5000     -17370.4187  -17370.6816       0.2629   225.9
11.7500     -17370.0657  -17370.5267       0.4610   396.3
12.0000     -17370.2868  -17370.6335       0.3467   298.0
12.2500     -17370.1728  -17370.5990       0.4262   366.4
12.5000     -17370.2213  -17370.7372       0.5160   443.5
12.7500     -17370.1954  -17370.7378       0.5424   466.2
13.0000     -17370.4847  -17370.7228       0.2381   204.7
13.2500     -17370.3553  -17370.6043       0.2490   214.0
13.5000     -17370.3021  -17370.7135       0.4114   353.7
13.7500     -17370.1013  -17370.5420       0.4407   378.9
14.0000     -17370.3825  -17370.7379       0.3554   305.5
14.2500     -17370.5330  -17370.7098       0.1768   152.0
14.5000     -17370.1299  -17370.7267       0.5968   513.0
14.7500     -17370.1673  -17370.5145       0.3472   298.5
15.0000     -17370.3960  -17370.6275       0.2315   199.0
15.2500     -17370.4556  -17370.7554       0.2998   257.7
15.5000     -17370.2091  -17370.6677       0.4586   394.2
15.7500     -17370.4790  -17370.7024       0.2234   192.0
16.0000     -17370.4301  -17370.7315       0.3013   259.0
16.2500     -17370.2341  -17370.6522       0.4181   359.4
16.5000     -17370.3335  -17370.6615       0.3280   282.0
16.7500     -17370.4159  -17370.6908       0.2749   236.3
17.0000     -17370.4320  -17370.7062       0.2742   235.7
17.2500     -17370.2237  -17370.6203       0.3966   340.9
17.5000     -17370.3106  -17370.5648       0.2542   218.5
17.7500     -17370.4781  -17370.7985       0.3204   275.4
18.0000     -17370.3314  -17370.6236       0.2923   251.2
18.2500     -17370.4269  -17370.7347       0.3078   264.6
18.5000     -17370.1755  -17370.6666       0.4912   422.2
18.7500     -17370.1863  -17370.6598       0.4735   407.0
19.0000     -17369.9451  -17370.5926       0.6475   556.6
19.2500     -17370.4609  -17370.8254       0.3644   313.3
19.5000     -17370.2926  -17370.5794       0.2869   246.6
19.7500     -17370.4048  -17370.7106       0.3057   262.8
20.0000     -17370.3636  -17370.7635       0.3999   343.7
20.2500     -17370.3699  -17370.7580       0.3881   333.6
20.5000     -17370.3056  -17370.7136       0.4080   350.7
20.7500     -17370.2463  -17370.6632       0.4169   358.4
21.0000     -17370.0950  -17370.5590       0.4641   398.9
21.2500     -17370.3557  -17370.7016       0.3459   297.3
21.5000     -17370.4444  -17370.7731       0.3287   282.6
21.7500     -17369.9390  -17370.4194       0.4804   413.0
22.0000     -17370.3332  -17370.6592       0.3260   280.2
22.2500     -17370.0031  -17370.5309       0.5279   453.8
22.5000     -17370.0213  -17370.5798       0.5585   480.1
22.7500     -17370.2557  -17370.5432       0.2875   247.1
23.0000     -17370.4275  -17370.7335       0.3060   263.1
23.2500     -17370.4303  -17370.7807       0.3504   301.2
23.5000     -17370.3347  -17370.5537       0.2190   188.2
23.7500     -17370.3885  -17370.6264       0.2380   204.6
24.0000     -17370.3135  -17370.6989       0.3854   331.3
24.2500     -17370.3146  -17370.6814       0.3668   315.3
24.5000     -17370.3779  -17370.7407       0.3628   311.9
24.7500     -17370.2764  -17370.6760       0.3996   343.5
25.0000     -17370.4631  -17370.7237       0.2606   224.0
25.2500     -17370.1696  -17370.7074       0.5379   462.3
25.5000     -17370.6064  -17370.7719       0.1655   142.2
25.7500     -17370.4711  -17370.7776       0.3065   263.5
26.0000     -17370.4080  -17370.7111       0.3031   260.5
26.2500     -17370.5233  -17370.7647       0.2414   207.5
26.5000     -17370.4244  -17370.6385       0.2141   184.0
26.7500     -17370.1887  -17370.6017       0.4131   355.1
27.0000     -17370.3957  -17370.5879       0.1922   165.2
27.2500     -17370.3801  -17370.6204       0.2404   206.6
27.5000     -17370.3826  -17370.6852       0.3026   260.1
27.7500     -17370.4622  -17370.7312       0.2689   231.2
28.0000     -17370.3529  -17370.7096       0.3567   306.6
28.2500     -17370.3240  -17370.6375       0.3134   269.4
28.5000     -17370.1330  -17370.3996       0.2665   229.1
28.7500     -17370.2777  -17370.6037       0.3260   280.2
29.0000     -17370.2683  -17370.6128       0.3445   296.1
29.2500     -17370.4263  -17370.7644       0.3381   290.6
29.5000     -17370.1113  -17370.5018       0.3905   335.7
29.7500     -17370.0098  -17370.4896       0.4798   412.4
30.0000     -17370.5192  -17370.7868       0.2676   230.1
30.2500     -17370.2778  -17370.6743       0.3965   340.8
30.5000     -17370.2016  -17370.6627       0.4611   396.4
30.7500     -17370.3468  -17370.5985       0.2517   216.3
31.0000     -17370.2641  -17370.6288       0.3647   313.5
31.2500     -17370.4281  -17370.6845       0.2564   220.4
31.5000     -17370.3230  -17370.7531       0.4300   369.7
31.7500     -17370.1079  -17370.6546       0.5468   470.0
32.0000     -17370.1057  -17370.5320       0.4263   366.5
32.2500     -17369.8693  -17370.3449       0.4756   408.9
32.5000     -17370.5764  -17370.8540       0.2776   238.6
32.7500     -17370.1642  -17370.6027       0.4384   376.9
33.0000     -17370.2728  -17370.5951       0.3224   277.1
33.2500     -17370.1763  -17370.5010       0.3246   279.1
33.5000     -17370.2558  -17370.6564       0.4006   344.4
33.7500     -17370.0269  -17370.6528       0.6259   538.1
34.0000     -17370.3996  -17370.7346       0.3350   288.0
34.2500     -17370.4411  -17370.6170       0.1759   151.2
34.5000     -17370.3329  -17370.6854       0.3525   303.0
34.7500     -17370.2933  -17370.5681       0.2748   236.2
35.0000     -17370.2404  -17370.5951       0.3547   304.9
35.2500     -17370.3987  -17370.7030       0.3043   261.6
35.5000     -17370.4525  -17370.6935       0.2410   207.2
35.7500     -17370.3669  -17370.6462       0.2793   240.1
36.0000     -17370.5117  -17370.7074       0.1956   168.2
36.2500     -17370.4000  -17370.7423       0.3423   294.2
36.5000     -17370.2438  -17370.5998       0.3560   306.0
36.7500     -17370.3676  -17370.7642       0.3966   340.9
37.0000     -17370.1669  -17370.6307       0.4638   398.7
37.2500     -17370.2526  -17370.5682       0.3156   271.3
37.5000     -17370.1976  -17370.5184       0.3208   275.8
37.7500     -17369.9744  -17370.4233       0.4489   385.9
38.0000     -17370.2026  -17370.6025       0.3999   343.7
38.2500     -17370.4593  -17370.7219       0.2626   225.7
38.5000     -17370.4336  -17370.6956       0.2621   225.3
38.7500     -17370.1801  -17370.5801       0.4001   343.9
39.0000     -17370.1570  -17370.5403       0.3833   329.5
39.2500     -17370.1787  -17370.6302       0.4515   388.1
39.5000     -17370.1924  -17370.4161       0.2237   192.3
39.7500     -17370.3137  -17370.5559       0.2422   208.2
40.0000     -17370.3934  -17370.7070       0.3136   269.6
