Time[ps]      Etot[eV]     Epot[eV]     Ekin[eV]    T[K]
0.0000      -17369.8994  -17370.4124       0.5130   440.9
0.2500      -17369.7957  -17370.1253       0.3296   283.4
0.5000      -17369.9282  -17370.2236       0.2954   253.9
0.7500      -17369.8293  -17370.2192       0.3900   335.2
1.0000      -17369.8073  -17370.2108       0.4035   346.8
1.2500      -17369.8810  -17370.1563       0.2754   236.7
1.5000      -17369.8767  -17370.2177       0.3411   293.2
1.7500      -17369.7067  -17370.1490       0.4423   380.2
2.0000      -17369.7576  -17370.1493       0.3918   336.8
2.2500      -17369.9881  -17370.2561       0.2680   230.3
2.5000      -17369.9775  -17370.5254       0.5479   471.0
2.7500      -17369.9994  -17370.3076       0.3082   265.0
3.0000      -17370.2089  -17370.5496       0.3407   292.8
3.2500      -17370.2570  -17370.4656       0.2086   179.3
3.5000      -17370.2183  -17370.5057       0.2875   247.1
3.7500      -17370.1833  -17370.5763       0.3930   337.8
4.0000      -17370.2157  -17370.4743       0.2586   222.3
4.2500      -17370.1301  -17370.3669       0.2368   203.5
4.5000      -17370.3577  -17370.5700       0.2123   182.5
4.7500      -17370.0631  -17370.3389       0.2759   237.2
5.0000      -17370.2740  -17370.5901       0.3161   271.7
5.2500      -17370.1452  -17370.5176       0.3724   320.1
5.5000      -17369.9901  -17370.4340       0.4439   381.5
5.7500      -17370.0647  -17370.4453       0.3807   327.2
6.0000      -17370.1651  -17370.5360       0.3709   318.9
6.2500      -17370.0639  -17370.4125       0.3487   299.7
6.5000      -17370.1942  -17370.5349       0.3408   292.9
6.7500      -17370.1325  -17370.3743       0.2418   207.9
7.0000      -17370.2084  -17370.5275       0.3192   274.4
7.2500      -17370.2346  -17370.3896       0.1550   133.3
7.5000      -17370.1952  -17370.5279       0.3327   286.0
7.7500      -17370.1440  -17370.4018       0.2578   221.6
8.0000      -17369.8652  -17370.4325       0.5672   487.6
8.2500      -17370.0275  -17370.3227       0.2952   253.8
8.5000      -17370.1707  -17370.5123       0.3417   293.7
8.7500      -17370.1190  -17370.5278       0.4087   351.3
9.0000      -17370.0843  -17370.3686       0.2843   244.4
9.2500      -17370.0416  -17370.4273       0.3858   331.6
9.5000      -17370.2036  -17370.5386       0.3350   288.0
9.7500      -17370.0517  -17370.3734       0.3217   276.5
10.0000     -17369.9175  -17370.4537       0.5361   460.9
10.2500     -17370.0228  -17370.3815       0.3588   308.4
10.5000     -17370.1926  -17370.5428       0.3502   301.0
10.7500     -17369.8201  -17370.3854       0.5652   485.9
11.0000     -17370.1819  -17370.5789       0.3970   341.3
11.2500     -17370.1525  -17370.4387       0.2862   246.0
11.5000     -17370.2863  -17370.5267       0.2403   206.6
11.7500     -17370.2129  -17370.4278       0.2149   184.8
12.0000     -17370.0727  -17370.4465       0.3737   321.3
12.2500     -17370.0917  -17370.4169       0.3252   279.5
12.5000     -17370.0199  -17370.3562       0.3363   289.1
12.7500     -17370.1144  -17370.5501       0.4358   374.6
13.0000     -17370.2105  -17370.5148       0.3043   261.5
13.2500     -17369.8937  -17370.5351       0.6413   551.3
13.5000     -17370.1268  -17370.4920       0.3652   313.9
13.7500     -17369.9686  -17370.3753       0.4066   349.5
14.0000     -17370.2935  -17370.4893       0.1958   168.3
14.2500     -17370.0595  -17370.3543       0.2948   253.4
14.5000     -17370.0387  -17370.4465       0.4078   350.5
14.7500     -17370.2020  -17370.4798       0.2778   238.8
15.0000     -17370.1000  -17370.4820       0.3820   328.4
15.2500     -17370.1147  -17370.4677       0.3529   303.4
15.5000     -17370.2279  -17370.4727       0.2448   210.4
15.7500     -17370.2023  -17370.5380       0.3357   288.6
16.0000     -17370.0441  -17370.5339       0.4898   421.0
16.2500     -17370.1807  -17370.4867       0.3059   263.0
16.5000     -17370.2750  -17370.5300       0.2550   219.2
16.7500     -17370.1212  -17370.4305       0.3093   265.8
17.0000     -17370.2686  -17370.5497       0.2811   241.6
17.2500     -17370.0772  -17370.4693       0.3920   337.0
17.5000     -17370.0771  -17370.4979       0.4209   361.8
17.7500     -17369.8618  -17370.5997       0.7379   634.3
18.0000     -17370.0948  -17370.5234       0.4285   368.4
18.2500     -17369.9464  -17370.4594       0.5131   441.0
18.5000     -17369.8359  -17370.3179       0.4820   414.3
18.7500     -17370.0834  -17370.3849       0.3016   259.2
19.0000     -17370.0491  -17370.4157       0.3667   315.2
19.2500     -17370.1014  -17370.5212       0.4198   360.8
19.5000     -17369.9676  -17370.3532       0.3856   331.5
19.7500     -17370.1148  -17370.4520       0.3372   289.9
20.0000     -17370.0253  -17370.4095       0.3842   330.2
20.2500     -17370.1966  -17370.5211       0.3244   278.9
20.5000     -17369.9293  -17370.2986       0.3693   317.4
20.7500     -17370.1756  -17370.4500       0.2744   235.8
21.0000     -17370.0849  -17370.4693       0.3843   330.4
21.2500     -17370.2649  -17370.4678       0.2029   174.4
21.5000     -17370.0605  -17370.4772       0.4167   358.2
21.7500     -17370.4039  -17370.6007       0.1968   169.1
22.0000     -17370.1807  -17370.5558       0.3751   322.5
22.2500     -17370.2385  -17370.4591       0.2206   189.6
22.5000     -17369.9236  -17370.4307       0.5071   435.9
22.7500     -17370.1716  -17370.4611       0.2894   248.8
23.0000     -17370.2771  -17370.5209       0.2438   209.5
23.2500     -17370.2170  -17370.5683       0.3513   302.0
23.5000     -17370.3054  -17370.4795       0.1741   149.7
23.7500     -17370.2443  -17370.5559       0.3116   267.8
24.0000     -17370.3066  -17370.5831       0.2764   237.6
24.2500     -17370.1154  -17370.4987       0.3833   329.5
24.5000     -17370.3490  -17370.5762       0.2272   195.3
24.7500     -17369.9008  -17370.4014       0.5005   430.3
25.0000     -17370.0257  -17370.5071       0.4813   413.8
25.2500     -17370.1439  -17370.5091       0.3652   313.9
25.5000     -17370.0196  -17370.2824       0.2628   225.9
25.7500     -17370.3486  -17370.5737       0.2251   193.5
26.0000     -17369.9863  -17370.3543       0.3680   316.3
26.2500     -17370.0737  -17370.4507       0.3769   324.0
26.5000     -17370.1876  -17370.4828       0.2952   253.7
26.7500     -17370.0474  -17370.4700       0.4225   363.2
27.0000     -17370.0192  -17370.4878       0.4687   402.9
27.2500     -17370.0823  -17370.5249       0.4425   380.4
27.5000     -17370.0752  -17370.3734       0.2982   256.3
27.7500     -17370.3790  -17370.6286       0.2497   214.6
28.0000     -17369.8952  -17370.4279       0.5327   457.9
28.2500     -17370.0126  -17370.4223       0.4097   352.2
28.5000     -17370.2083  -17370.4731       0.2648   227.6
28.7500     -17370.1912  -17370.5377       0.3464   297.8
29.0000     -17370.2190  -17370.4907       0.2717   233.5
29.2500     -17370.1990  -17370.5135       0.3145   270.3
29.5000     -17370.2337  -17370.5150       0.2814   241.9
29.7500     -17370.2827  -17370.5311       0.2484   213.5
30.0000     -17370.0807  -17370.6195       0.5388   463.1
30.2500     -17370.2294  -17370.6045       0.3751   322.5
30.5000     -17370.2283  -17370.5336       0.3054   262.5
30.7500     -17370.1657  -17370.4215       0.2558   219.9
31.0000     -17370.2328  -17370.5882       0.3555   305.6
31.2500     -17370.4108  -17370.6236       0.2129   183.0
31.5000     -17370.4376  -17370.6267       0.1890   162.5
31.7500     -17370.1301  -17370.5870       0.4569   392.7
32.0000     -17370.1598  -17370.5550       0.3952   339.7
32.2500     -17369.9241  -17370.4219       0.4979   428.0
32.5000     -17370.2703  -17370.6013       0.3310   284.5
32.7500     -17370.1369  -17370.5289       0.3920   337.0
33.0000     -17370.0275  -17370.4520       0.4245   364.9
33.2500     -17370.2786  -17370.5869       0.3083   265.0
33.5000     -17370.2607  -17370.5873       0.3266   280.8
33.7500     -17370.2525  -17370.6281       0.3756   322.9
34.0000     -17369.9442  -17370.4166       0.4724   406.0
34.2500     -17370.1298  -17370.4658       0.3359   288.8
34.5000     -17370.2017  -17370.5578       0.3561   306.1
34.7500     -17370.3291  -17370.5416       0.2125   182.6
35.0000     -17370.0384  -17370.4134       0.3750   322.3
35.2500     -17370.2036  -17370.5159       0.3123   268.5
35.5000     -17370.2116  -17370.4915       0.2799   240.6
35.7500     -17370.3153  -17370.5832       0.2679   230.3
36.0000     -17370.1743  -17370.5067       0.3324   285.7
36.2500     -17370.1872  -17370.4429       0.2557   219.8
36.5000     -17370.1735  -17370.4481       0.2746   236.0
36.7500     -17370.1122  -17370.4923       0.3801   326.7
37.0000     -17370.2380  -17370.5584       0.3204   275.4
37.2500     -17370.0556  -17370.4082       0.3526   303.1
37.5000     -17370.1288  -17370.4600       0.3312   284.7
37.7500     -17370.1030  -17370.4388       0.3358   288.7
38.0000     -17370.1330  -17370.5040       0.3710   318.9
38.2500     -17370.0902  -17370.4321       0.3419   293.9
38.5000     -17370.1328  -17370.5308       0.3981   342.2
38.7500     -17369.9334  -17370.4375       0.5041   433.4
39.0000     -17370.2621  -17370.6168       0.3547   304.9
39.2500     -17370.0622  -17370.4575       0.3953   339.8
39.5000     -17370.0366  -17370.4370       0.4004   344.2
39.7500     -17369.8907  -17370.3632       0.4726   406.2
40.0000     -17370.1439  -17370.4615       0.3176   273.0
