Time[ps]      Etot[eV]     Epot[eV]     Ekin[eV]    T[K]
0.0000      -17370.2618  -17370.4124       0.1506   129.4
0.2500      -17369.9287  -17370.2663       0.3376   290.2
0.5000      -17369.8524  -17370.2515       0.3991   343.1
0.7500      -17369.9573  -17370.2244       0.2670   229.5
1.0000      -17369.8477  -17370.2304       0.3827   328.9
1.2500      -17370.0572  -17370.4276       0.3704   318.4
1.5000      -17370.2127  -17370.7367       0.5240   450.5
1.7500      -17370.6712  -17371.1413       0.4701   404.1
2.0000      -17371.1189  -17371.4959       0.3770   324.1
2.2500      -17371.4371  -17371.7807       0.3436   295.4
2.5000      -17371.3309  -17371.6393       0.3084   265.1
2.7500      -17370.9154  -17371.3981       0.4827   414.9
3.0000      -17371.1303  -17371.4633       0.3330   286.3
3.2500      -17371.1814  -17371.6295       0.4481   385.2
3.5000      -17371.3320  -17371.6145       0.2824   242.8
3.7500      -17370.9950  -17371.5436       0.5486   471.6
4.0000      -17371.1814  -17371.5061       0.3247   279.1
4.2500      -17370.9749  -17371.4746       0.4997   429.5
4.5000      -17371.2297  -17371.4847       0.2550   219.2
4.7500      -17371.1355  -17371.5080       0.3725   320.2
5.0000      -17371.3164  -17371.5391       0.2227   191.4
5.2500      -17371.4992  -17371.6917       0.1925   165.5
5.5000      -17371.3528  -17371.6535       0.3006   258.4
5.7500      -17370.9260  -17371.4969       0.5709   490.7
6.0000      -17371.1097  -17371.5409       0.4313   370.7
6.2500      -17371.3820  -17371.5771       0.1951   167.7
6.5000      -17371.3293  -17371.6861       0.3568   306.7
6.7500      -17371.1438  -17371.6157       0.4718   405.6
7.0000      -17371.5732  -17371.6966       0.1234   106.0
7.2500      -17371.3728  -17371.6733       0.3005   258.3
7.5000      -17371.2262  -17371.6196       0.3934   338.2
7.7500      -17371.3679  -17371.6647       0.2968   255.1
8.0000      -17371.2467  -17371.6734       0.4267   366.8
8.2500      -17371.3910  -17371.6760       0.2850   245.0
8.5000      -17371.3710  -17371.6612       0.2902   249.5
8.7500      -17371.4002  -17371.6625       0.2623   225.5
9.0000      -17371.2699  -17371.6118       0.3419   293.9
9.2500      -17371.3357  -17371.6304       0.2948   253.4
9.5000      -17371.4185  -17371.6456       0.2271   195.2
9.7500      -17371.4620  -17371.6158       0.1538   132.2
10.0000     -17371.4104  -17371.5914       0.1810   155.5
10.2500     -17371.0591  -17371.6040       0.5449   468.4
10.5000     -17371.3204  -17371.6652       0.3448   296.4
10.7500     -17371.1350  -17371.6149       0.4799   412.5
11.0000     -17371.4026  -17371.6242       0.2216   190.5
11.2500     -17371.4024  -17371.6867       0.2843   244.3
11.5000     -17371.2650  -17371.6840       0.4190   360.2
11.7500     -17371.2930  -17371.6440       0.3510   301.8
12.0000     -17371.1085  -17371.5294       0.4209   361.8
12.2500     -17371.1670  -17371.6321       0.4651   399.8
12.5000     -17371.3447  -17371.6608       0.3160   271.7
12.7500     -17371.1911  -17371.5686       0.3775   324.5
13.0000     -17371.1262  -17371.5811       0.4550   391.1
13.2500     -17371.1602  -17371.5601       0.3999   343.8
13.5000     -17371.3383  -17371.6723       0.3340   287.1
13.7500     -17371.3997  -17371.5544       0.1547   133.0
14.0000     -17371.3940  -17371.6065       0.2126   182.7
14.2500     -17371.2460  -17371.6403       0.3943   338.9
14.5000     -17371.1211  -17371.4848       0.3637   312.6
14.7500     -17371.3154  -17371.6182       0.3028   260.3
15.0000     -17371.2036  -17371.6095       0.4060   349.0
15.2500     -17371.1524  -17371.5672       0.4148   356.5
15.5000     -17371.1385  -17371.4698       0.3313   284.8
15.7500     -17371.2285  -17371.5814       0.3529   303.4
16.0000     -17371.1835  -17371.5792       0.3958   340.2
16.2500     -17371.2945  -17371.7252       0.4307   370.3
16.5000     -17371.4724  -17371.7133       0.2409   207.1
16.7500     -17371.2365  -17371.5416       0.3050   262.2
17.0000     -17371.3655  -17371.5991       0.2336   200.8
17.2500     -17371.2876  -17371.6452       0.3576   307.4
17.5000     -17371.0978  -17371.4258       0.3280   282.0
17.7500     -17371.2069  -17371.5946       0.3877   333.3
18.0000     -17371.1549  -17371.5152       0.3604   309.8
18.2500     -17371.3283  -17371.6734       0.3451   296.6
18.5000     -17371.2018  -17371.5797       0.3779   324.9
18.7500     -17371.2608  -17371.6019       0.3411   293.2
19.0000     -17371.3422  -17371.5893       0.2471   212.4
19.2500     -17371.2382  -17371.6337       0.3955   339.9
19.5000     -17371.3266  -17371.5726       0.2460   211.5
19.7500     -17371.3659  -17371.6610       0.2950   253.6
20.0000     -17371.2931  -17371.6768       0.3837   329.8
20.2500     -17371.3703  -17371.6181       0.2478   213.0
20.5000     -17371.3992  -17371.7151       0.3159   271.5
20.7500     -17371.2339  -17371.5941       0.3602   309.6
21.0000     -17371.4545  -17371.6776       0.2230   191.7
21.2500     -17371.0905  -17371.5224       0.4319   371.3
21.5000     -17371.0741  -17371.5896       0.5155   443.1
21.7500     -17371.0738  -17371.5354       0.4616   396.8
22.0000     -17371.5036  -17371.6454       0.1417   121.8
22.2500     -17371.3580  -17371.6198       0.2618   225.0
22.5000     -17371.3106  -17371.6525       0.3418   293.8
22.7500     -17371.0226  -17371.4526       0.4300   369.6
23.0000     -17371.2616  -17371.6138       0.3522   302.7
23.2500     -17371.2360  -17371.6379       0.4019   345.4
23.5000     -17371.2642  -17371.5932       0.3290   282.8
23.7500     -17371.2737  -17371.7073       0.4336   372.7
24.0000     -17371.2074  -17371.5661       0.3587   308.3
24.2500     -17370.9895  -17371.5494       0.5599   481.3
24.5000     -17371.3170  -17371.6253       0.3084   265.1
24.7500     -17371.2687  -17371.5766       0.3079   264.7
25.0000     -17371.2487  -17371.6434       0.3947   339.3
25.2500     -17371.2694  -17371.4959       0.2265   194.7
25.5000     -17371.1591  -17371.5610       0.4019   345.5
25.7500     -17371.3869  -17371.5900       0.2031   174.6
26.0000     -17371.1435  -17371.6276       0.4841   416.1
26.2500     -17371.0470  -17371.4270       0.3799   326.6
26.5000     -17371.1831  -17371.6186       0.4354   374.3
26.7500     -17371.2589  -17371.6063       0.3474   298.7
27.0000     -17371.4140  -17371.6595       0.2455   211.0
27.2500     -17371.1458  -17371.5397       0.3939   338.6
27.5000     -17371.3223  -17371.6741       0.3517   302.4
27.7500     -17371.2971  -17371.7106       0.4135   355.4
28.0000     -17371.0627  -17371.4474       0.3846   330.6
28.2500     -17371.0727  -17371.4912       0.4185   359.8
28.5000     -17371.1583  -17371.6348       0.4764   409.5
28.7500     -17371.0138  -17371.5587       0.5449   468.4
29.0000     -17371.0587  -17371.5154       0.4567   392.6
29.2500     -17371.3680  -17371.5817       0.2137   183.7
29.5000     -17371.2990  -17371.5750       0.2760   237.3
29.7500     -17371.2606  -17371.6269       0.3662   314.8
30.0000     -17371.2142  -17371.6202       0.4061   349.0
30.2500     -17371.4005  -17371.5393       0.1388   119.3
30.5000     -17371.1891  -17371.6770       0.4879   419.4
30.7500     -17371.3488  -17371.6445       0.2957   254.2
31.0000     -17371.2243  -17371.5374       0.3131   269.1
31.2500     -17371.3758  -17371.6461       0.2703   232.4
31.5000     -17371.3827  -17371.6738       0.2911   250.3
31.7500     -17371.2687  -17371.6355       0.3668   315.3
32.0000     -17371.3152  -17371.6249       0.3097   266.2
32.2500     -17371.2621  -17371.6305       0.3684   316.6
32.5000     -17371.3595  -17371.6291       0.2696   231.7
32.7500     -17371.4444  -17371.6226       0.1783   153.2
33.0000     -17371.1796  -17371.5517       0.3721   319.9
33.2500     -17371.3910  -17371.6551       0.2641   227.0
33.5000     -17371.0853  -17371.4776       0.3923   337.2
33.7500     -17371.2745  -17371.6162       0.3417   293.8
34.0000     -17371.3446  -17371.5883       0.2437   209.5
34.2500     -17371.0337  -17371.4718       0.4381   376.6
34.5000     -17371.2322  -17371.5246       0.2925   251.4
34.7500     -17371.2348  -17371.5353       0.3005   258.3
35.0000     -17371.2564  -17371.5594       0.3029   260.4
35.2500     -17371.3725  -17371.6140       0.2415   207.6
35.5000     -17371.2196  -17371.5973       0.3776   324.6
35.7500     -17371.2491  -17371.4108       0.1617   139.0
36.0000     -17371.3299  -17371.6386       0.3088   265.4
36.2500     -17371.0450  -17371.5141       0.4691   403.2
36.5000     -17371.2423  -17371.4726       0.2303   198.0
36.7500     -17371.0588  -17371.4167       0.3578   307.6
37.0000     -17371.3435  -17371.6306       0.2871   246.8
37.2500     -17371.0725  -17371.3994       0.3269   281.0
37.5000     -17371.1376  -17371.4318       0.2942   252.9
37.7500     -17371.2059  -17371.5127       0.3067   263.7
38.0000     -17371.3243  -17371.5304       0.2062   177.2
38.2500     -17371.2615  -17371.5245       0.2630   226.1
38.5000     -17371.1951  -17371.4970       0.3019   259.6
38.7500     -17371.3202  -17371.6599       0.3397   292.0
39.0000     -17371.2497  -17371.6447       0.3950   339.5
39.2500     -17371.3693  -17371.6676       0.2984   256.5
39.5000     -17371.1956  -17371.5810       0.3854   331.3
39.7500     -17371.2031  -17371.5794       0.3762   323.4
40.0000     -17371.3801  -17371.6578       0.2777   238.7
