Time[ps]      Etot[eV]     Epot[eV]     Ekin[eV]    T[K]
0.0000      -17370.0019  -17370.4124       0.4105   352.8
0.2500      -17370.0365  -17370.2865       0.2500   214.9
0.5000      -17369.9068  -17370.2742       0.3674   315.8
0.7500      -17369.8886  -17370.2398       0.3512   301.9
1.0000      -17369.8958  -17370.2424       0.3466   297.9
1.2500      -17369.8144  -17370.1116       0.2972   255.5
1.5000      -17369.8338  -17370.0893       0.2555   219.6
1.7500      -17369.7644  -17370.0698       0.3053   262.5
2.0000      -17369.9362  -17370.2328       0.2967   255.0
2.2500      -17370.1807  -17370.5784       0.3977   341.8
2.5000      -17370.4314  -17370.7872       0.3558   305.8
2.7500      -17370.3522  -17370.8523       0.5001   429.9
3.0000      -17370.6840  -17370.9613       0.2773   238.3
3.2500      -17370.4521  -17371.0063       0.5542   476.4
3.5000      -17370.3275  -17370.8451       0.5176   444.9
3.7500      -17370.4074  -17370.9037       0.4963   426.6
4.0000      -17370.5432  -17370.8295       0.2863   246.1
4.2500      -17370.5269  -17371.0158       0.4890   420.3
4.5000      -17370.5385  -17370.8537       0.3152   270.9
4.7500      -17370.3042  -17370.9682       0.6640   570.8
5.0000      -17370.3691  -17370.7218       0.3527   303.2
5.2500      -17370.4715  -17370.8174       0.3459   297.3
5.5000      -17370.4244  -17370.9521       0.5277   453.6
5.7500      -17370.5222  -17370.9345       0.4123   354.4
6.0000      -17370.5254  -17370.8599       0.3345   287.5
6.2500      -17370.5010  -17370.9223       0.4213   362.1
6.5000      -17370.4979  -17370.8986       0.4007   344.5
6.7500      -17370.6123  -17370.8783       0.2659   228.6
7.0000      -17370.3845  -17370.8069       0.4224   363.1
7.2500      -17370.5371  -17370.9640       0.4270   367.0
7.5000      -17370.4536  -17370.8586       0.4050   348.1
7.7500      -17370.4583  -17370.8387       0.3804   327.0
8.0000      -17370.3449  -17370.9150       0.5701   490.1
8.2500      -17370.5485  -17370.9569       0.4084   351.1
8.5000      -17370.6542  -17370.8796       0.2254   193.7
8.7500      -17370.4281  -17370.8317       0.4036   346.9
9.0000      -17370.6147  -17371.0092       0.3946   339.2
9.2500      -17370.4546  -17370.8797       0.4251   365.5
9.5000      -17370.6189  -17370.8871       0.2683   230.6
9.7500      -17370.5659  -17370.8651       0.2993   257.2
10.0000     -17370.4590  -17370.8219       0.3629   311.9
10.2500     -17370.3508  -17370.7798       0.4290   368.8
10.5000     -17370.2667  -17370.7447       0.4779   410.8
10.7500     -17370.6365  -17370.9286       0.2920   251.0
11.0000     -17370.4092  -17370.8501       0.4409   379.0
11.2500     -17370.5858  -17370.9346       0.3488   299.8
11.5000     -17370.3670  -17370.9523       0.5853   503.1
11.7500     -17370.4548  -17370.7766       0.3218   276.6
12.0000     -17370.1102  -17370.7217       0.6115   525.7
12.2500     -17370.2656  -17370.6651       0.3994   343.3
12.5000     -17370.5747  -17370.8525       0.2778   238.8
12.7500     -17370.6819  -17370.8919       0.2100   180.5
13.0000     -17370.5553  -17370.8773       0.3220   276.8
13.2500     -17370.7101  -17370.8409       0.1308   112.5
13.5000     -17370.5548  -17370.8840       0.3292   283.0
13.7500     -17370.4317  -17370.7733       0.3416   293.7
14.0000     -17370.6367  -17370.9167       0.2800   240.7
14.2500     -17370.8090  -17370.9819       0.1729   148.6
14.5000     -17370.4729  -17370.7859       0.3130   269.1
14.7500     -17370.4181  -17370.8813       0.4632   398.1
15.0000     -17370.4812  -17370.7661       0.2849   244.9
15.2500     -17370.3394  -17370.7275       0.3881   333.6
15.5000     -17370.2949  -17370.8728       0.5780   496.8
15.7500     -17370.5489  -17370.8837       0.3348   287.8
16.0000     -17370.6609  -17370.9610       0.3001   257.9
16.2500     -17370.5635  -17370.8683       0.3047   261.9
16.5000     -17370.3386  -17370.8901       0.5514   474.0
16.7500     -17370.4237  -17370.7730       0.3494   300.3
17.0000     -17370.5997  -17370.9497       0.3501   300.9
17.2500     -17370.4202  -17370.9467       0.5265   452.6
17.5000     -17370.5385  -17370.9177       0.3792   326.0
17.7500     -17370.7082  -17370.9266       0.2185   187.8
18.0000     -17370.4798  -17370.8161       0.3363   289.1
18.2500     -17370.5988  -17370.8469       0.2481   213.3
18.5000     -17370.5402  -17370.8732       0.3331   286.3
18.7500     -17370.4233  -17370.9260       0.5028   432.2
19.0000     -17370.5547  -17370.9947       0.4401   378.3
19.2500     -17370.6714  -17370.9294       0.2581   221.8
19.5000     -17370.4474  -17370.8610       0.4136   355.6
19.7500     -17370.6109  -17370.9187       0.3078   264.6
20.0000     -17370.3109  -17370.8618       0.5509   473.5
20.2500     -17370.4614  -17370.9416       0.4802   412.8
20.5000     -17370.7389  -17370.9765       0.2376   204.2
20.7500     -17370.5957  -17370.9701       0.3744   321.8
21.0000     -17370.4236  -17370.7208       0.2971   255.4
21.2500     -17370.6932  -17370.9316       0.2385   205.0
21.5000     -17370.7051  -17370.9401       0.2349   202.0
21.7500     -17370.4698  -17370.7670       0.2972   255.5
22.0000     -17370.4713  -17370.9487       0.4774   410.4
22.2500     -17370.7312  -17370.9767       0.2455   211.0
22.5000     -17370.2645  -17370.8655       0.6010   516.6
22.7500     -17370.5343  -17370.8309       0.2966   255.0
23.0000     -17370.6737  -17370.9637       0.2899   249.2
23.2500     -17370.7528  -17370.9519       0.1991   171.1
23.5000     -17370.4506  -17371.0038       0.5532   475.5
23.7500     -17370.4457  -17370.8117       0.3660   314.6
24.0000     -17370.4939  -17370.8569       0.3630   312.0
24.2500     -17370.8102  -17371.0008       0.1906   163.8
24.5000     -17370.6621  -17370.9874       0.3253   279.6
24.7500     -17370.6262  -17370.9096       0.2834   243.6
25.0000     -17370.4231  -17370.9477       0.5246   450.9
25.2500     -17370.4880  -17370.9707       0.4826   414.9
25.5000     -17370.6031  -17370.9066       0.3035   260.9
25.7500     -17370.5894  -17370.9205       0.3312   284.7
26.0000     -17370.6662  -17370.9163       0.2501   215.0
26.2500     -17370.6347  -17370.8370       0.2022   173.8
26.5000     -17370.6239  -17370.9630       0.3392   291.5
26.7500     -17370.4535  -17370.7109       0.2573   221.2
27.0000     -17370.4791  -17370.8811       0.4020   345.5
27.2500     -17370.5910  -17370.8912       0.3003   258.1
27.5000     -17370.4537  -17370.9298       0.4762   409.3
27.7500     -17370.5113  -17370.7701       0.2589   222.5
28.0000     -17370.4854  -17370.8629       0.3776   324.6
28.2500     -17370.4359  -17370.9405       0.5046   433.7
28.5000     -17370.3076  -17370.7945       0.4869   418.5
28.7500     -17370.5528  -17370.8552       0.3025   260.0
29.0000     -17370.6033  -17370.8493       0.2460   211.5
29.2500     -17370.6583  -17370.9300       0.2717   233.5
29.5000     -17370.4005  -17370.9026       0.5021   431.6
29.7500     -17370.5052  -17370.9926       0.4875   419.0
30.0000     -17370.5314  -17370.9639       0.4325   371.8
30.2500     -17370.4393  -17370.8256       0.3863   332.1
30.5000     -17370.4913  -17370.8480       0.3567   306.6
30.7500     -17370.5532  -17370.9161       0.3629   311.9
31.0000     -17370.3588  -17370.8998       0.5410   465.0
31.2500     -17370.5329  -17370.9312       0.3982   342.3
31.5000     -17370.6121  -17370.8639       0.2519   216.5
31.7500     -17370.7305  -17371.0250       0.2945   253.1
32.0000     -17370.3982  -17370.9201       0.5219   448.7
32.2500     -17370.5209  -17370.8326       0.3117   268.0
32.5000     -17370.3403  -17370.7687       0.4284   368.3
32.7500     -17370.5596  -17370.8626       0.3029   260.4
33.0000     -17370.5177  -17370.9459       0.4282   368.1
33.2500     -17370.3929  -17370.8930       0.5002   429.9
33.5000     -17370.4635  -17370.8750       0.4115   353.7
33.7500     -17370.4374  -17370.7368       0.2994   257.3
34.0000     -17370.5656  -17370.8966       0.3310   284.5
34.2500     -17370.7108  -17370.9731       0.2623   225.5
34.5000     -17370.5458  -17370.8700       0.3241   278.6
34.7500     -17370.5710  -17370.8407       0.2697   231.8
35.0000     -17370.4565  -17370.9716       0.5151   442.7
35.2500     -17370.4786  -17370.9002       0.4216   362.4
35.5000     -17370.5013  -17370.8211       0.3198   274.9
35.7500     -17370.6084  -17370.9714       0.3630   312.0
36.0000     -17370.2983  -17370.8651       0.5668   487.2
36.2500     -17370.4108  -17370.7358       0.3251   279.4
36.5000     -17370.3347  -17370.8129       0.4781   411.0
36.7500     -17370.4936  -17370.7779       0.2844   244.4
37.0000     -17370.4008  -17370.8665       0.4658   400.4
37.2500     -17370.4855  -17370.8622       0.3767   323.8
37.5000     -17370.5723  -17370.8137       0.2413   207.5
37.7500     -17370.7234  -17370.9925       0.2692   231.4
38.0000     -17370.4859  -17370.9092       0.4233   363.8
38.2500     -17370.5037  -17370.7844       0.2808   241.3
38.5000     -17370.8103  -17371.0248       0.2145   184.4
38.7500     -17370.7038  -17370.9666       0.2629   226.0
39.0000     -17370.5583  -17370.8958       0.3376   290.2
39.2500     -17370.2168  -17370.8662       0.6493   558.2
39.5000     -17370.4294  -17370.7728       0.3435   295.2
39.7500     -17370.4896  -17370.8827       0.3931   337.9
40.0000     -17370.3772  -17370.8291       0.4519   388.4
