Time[ps]      Etot[eV]     Epot[eV]     Ekin[eV]    T[K]
0.0000      -17370.2127  -17370.4124       0.1997   171.7
0.2500      -17369.9161  -17370.2729       0.3568   306.7
0.5000      -17369.8729  -17370.1410       0.2682   230.5
0.7500      -17370.0932  -17370.2674       0.1742   149.7
1.0000      -17369.7075  -17370.0828       0.3753   322.6
1.2500      -17369.7003  -17370.0265       0.3263   280.5
1.5000      -17369.8549  -17370.2036       0.3487   299.7
1.7500      -17370.2897  -17370.5777       0.2880   247.6
2.0000      -17370.6413  -17370.9730       0.3317   285.1
2.2500      -17371.2817  -17371.6210       0.3393   291.7
2.5000      -17371.6081  -17372.0087       0.4006   344.4
2.7500      -17371.3111  -17371.8918       0.5807   499.1
3.0000      -17371.6932  -17371.9565       0.2633   226.4
3.2500      -17371.5223  -17372.0309       0.5086   437.2
3.5000      -17371.7141  -17372.0687       0.3546   304.8
3.7500      -17371.7246  -17371.9686       0.2439   209.7
4.0000      -17371.5119  -17371.9030       0.3910   336.1
4.2500      -17371.6877  -17372.0394       0.3517   302.3
4.5000      -17371.7589  -17371.9693       0.2105   180.9
4.7500      -17371.6884  -17371.8984       0.2100   180.5
5.0000      -17371.6310  -17371.9164       0.2854   245.4
5.2500      -17371.7515  -17372.0848       0.3333   286.5
5.5000      -17371.7240  -17371.9512       0.2272   195.3
5.7500      -17371.5691  -17371.8956       0.3265   280.7
6.0000      -17371.6532  -17372.0298       0.3766   323.7
6.2500      -17371.5826  -17371.8743       0.2917   250.7
6.5000      -17371.6305  -17371.9984       0.3679   316.2
6.7500      -17371.6082  -17371.8873       0.2791   239.9
7.0000      -17371.6668  -17371.9703       0.3036   260.9
7.2500      -17371.6456  -17372.0177       0.3722   319.9
7.5000      -17371.8522  -17372.0774       0.2252   193.6
7.7500      -17371.5039  -17372.0424       0.5385   462.9
8.0000      -17371.5286  -17371.9085       0.3799   326.6
8.2500      -17371.6610  -17372.0093       0.3483   299.4
8.5000      -17371.7579  -17372.0630       0.3050   262.2
8.7500      -17371.6173  -17371.9940       0.3767   323.8
9.0000      -17371.5861  -17372.0580       0.4719   405.6
9.2500      -17371.7109  -17371.9672       0.2562   220.3
9.5000      -17371.6983  -17372.0167       0.3184   273.7
9.7500      -17371.5804  -17371.9924       0.4120   354.2
10.0000     -17371.6299  -17371.9470       0.3171   272.6
10.2500     -17371.7802  -17372.0703       0.2901   249.4
10.5000     -17371.6490  -17372.0540       0.4050   348.1
10.7500     -17371.6862  -17372.0358       0.3496   300.5
11.0000     -17371.6969  -17372.0564       0.3595   309.1
11.2500     -17371.4901  -17371.9032       0.4131   355.1
11.5000     -17371.6130  -17371.9846       0.3716   319.4
11.7500     -17371.6389  -17371.9709       0.3321   285.4
12.0000     -17371.6189  -17371.9961       0.3773   324.3
12.2500     -17371.3051  -17371.7476       0.4425   380.4
12.5000     -17371.4661  -17371.8691       0.4030   346.4
12.7500     -17371.6369  -17372.0144       0.3774   324.4
13.0000     -17371.5084  -17371.9315       0.4231   363.7
13.2500     -17371.7828  -17371.9738       0.1909   164.1
13.5000     -17371.5542  -17371.8866       0.3324   285.7
13.7500     -17371.7282  -17372.0657       0.3375   290.1
14.0000     -17371.4370  -17371.9755       0.5385   462.9
14.2500     -17371.4922  -17371.8841       0.3919   336.9
14.5000     -17371.3951  -17371.9392       0.5441   467.7
14.7500     -17371.7750  -17372.0392       0.2643   227.2
15.0000     -17371.5681  -17371.9914       0.4233   363.8
15.2500     -17371.6984  -17372.0103       0.3119   268.1
15.5000     -17371.5976  -17371.9904       0.3928   337.7
15.7500     -17371.6258  -17371.9552       0.3295   283.2
16.0000     -17371.6224  -17371.9675       0.3451   296.6
16.2500     -17371.5237  -17371.9053       0.3816   328.1
16.5000     -17371.7166  -17371.9935       0.2769   238.1
16.7500     -17371.4403  -17371.9471       0.5068   435.6
17.0000     -17371.7856  -17372.0275       0.2419   207.9
17.2500     -17371.7311  -17371.9688       0.2377   204.3
17.5000     -17371.6985  -17372.0290       0.3305   284.1
17.7500     -17371.6899  -17371.9845       0.2946   253.2
18.0000     -17371.8492  -17372.0944       0.2453   210.8
18.2500     -17371.8787  -17372.1378       0.2591   222.7
18.5000     -17371.6326  -17372.0351       0.4025   346.0
18.7500     -17371.6959  -17372.0056       0.3097   266.2
19.0000     -17371.6840  -17372.0111       0.3270   281.1
19.2500     -17371.6897  -17371.9815       0.2918   250.8
19.5000     -17371.6367  -17372.0023       0.3655   314.2
19.7500     -17371.6993  -17372.0601       0.3608   310.2
20.0000     -17371.7673  -17372.1101       0.3428   294.7
20.2500     -17371.7682  -17372.0851       0.3169   272.4
20.5000     -17371.8335  -17372.0807       0.2472   212.5
20.7500     -17371.7524  -17372.0189       0.2664   229.0
21.0000     -17371.7239  -17372.0077       0.2838   243.9
21.2500     -17371.6816  -17372.0497       0.3680   316.4
21.5000     -17371.6155  -17372.0743       0.4588   394.4
21.7500     -17371.6691  -17372.0119       0.3428   294.7
22.0000     -17371.6118  -17372.0174       0.4055   348.6
22.2500     -17371.4479  -17372.0243       0.5764   495.5
22.5000     -17371.7707  -17372.0088       0.2381   204.6
22.7500     -17371.5296  -17372.0307       0.5011   430.7
23.0000     -17371.5932  -17371.9952       0.4019   345.5
23.2500     -17371.8150  -17372.0386       0.2236   192.2
23.5000     -17371.6733  -17372.0513       0.3780   324.9
23.7500     -17371.6533  -17372.0867       0.4334   372.6
24.0000     -17371.6511  -17372.1269       0.4758   409.0
24.2500     -17371.7730  -17372.0047       0.2317   199.2
24.5000     -17371.8193  -17372.0598       0.2405   206.8
24.7500     -17371.7164  -17372.0618       0.3454   296.9
25.0000     -17371.4657  -17371.9421       0.4764   409.5
25.2500     -17371.7506  -17372.0377       0.2871   246.8
25.5000     -17371.5730  -17372.0049       0.4319   371.3
25.7500     -17371.7960  -17372.0676       0.2716   233.5
26.0000     -17371.5556  -17372.0885       0.5329   458.1
26.2500     -17371.7423  -17372.0764       0.3342   287.3
26.5000     -17371.6144  -17372.0639       0.4495   386.4
26.7500     -17371.6768  -17372.1021       0.4253   365.5
27.0000     -17371.7678  -17372.0844       0.3166   272.2
27.2500     -17371.9160  -17372.0986       0.1826   157.0
27.5000     -17371.5901  -17372.0411       0.4510   387.7
27.7500     -17371.8308  -17372.0873       0.2564   220.4
28.0000     -17371.5982  -17371.8987       0.3005   258.3
28.2500     -17371.7109  -17372.0150       0.3041   261.4
28.5000     -17371.8072  -17372.0660       0.2589   222.5
28.7500     -17371.6569  -17371.9905       0.3336   286.8
29.0000     -17371.5517  -17372.0839       0.5322   457.5
29.2500     -17371.5451  -17372.0076       0.4626   397.6
29.5000     -17371.7328  -17372.0652       0.3324   285.7
29.7500     -17371.7314  -17371.9781       0.2467   212.1
30.0000     -17371.7282  -17371.9683       0.2401   206.4
30.2500     -17371.5816  -17371.9289       0.3473   298.5
30.5000     -17371.7244  -17372.0406       0.3163   271.9
30.7500     -17371.6058  -17371.9924       0.3866   332.3
31.0000     -17371.7932  -17372.0892       0.2960   254.4
31.2500     -17371.7338  -17372.0156       0.2818   242.2
31.5000     -17371.6203  -17371.9818       0.3614   310.7
31.7500     -17371.7268  -17372.0343       0.3075   264.3
32.0000     -17371.7136  -17372.0601       0.3465   297.8
32.2500     -17371.5051  -17371.9558       0.4506   387.3
32.5000     -17371.6142  -17372.0127       0.3986   342.6
32.7500     -17371.6068  -17372.0824       0.4756   408.8
33.0000     -17371.6210  -17372.0280       0.4070   349.9
33.2500     -17371.5522  -17372.0082       0.4560   392.0
33.5000     -17371.5730  -17371.9493       0.3763   323.5
33.7500     -17371.4282  -17371.9404       0.5122   440.3
34.0000     -17371.7816  -17372.1001       0.3184   273.7
34.2500     -17371.7770  -17372.0629       0.2859   245.7
34.5000     -17371.4318  -17371.9289       0.4971   427.3
34.7500     -17371.6040  -17371.9807       0.3767   323.8
35.0000     -17371.5769  -17371.9688       0.3919   336.9
35.2500     -17371.8204  -17372.0703       0.2499   214.8
35.5000     -17371.6139  -17372.0881       0.4742   407.6
35.7500     -17371.5629  -17372.0465       0.4836   415.7
36.0000     -17371.7186  -17372.1338       0.4152   356.9
36.2500     -17371.6826  -17372.0029       0.3203   275.3
36.5000     -17371.6017  -17371.9741       0.3724   320.1
36.7500     -17371.7877  -17372.0158       0.2281   196.1
37.0000     -17371.5821  -17372.0372       0.4551   391.2
37.2500     -17371.7923  -17372.0561       0.2637   226.7
37.5000     -17371.5408  -17372.0316       0.4907   421.8
37.7500     -17371.7259  -17372.1075       0.3816   328.0
38.0000     -17371.5428  -17371.9939       0.4511   387.8
38.2500     -17371.4275  -17371.9173       0.4898   421.0
38.5000     -17371.6439  -17371.9243       0.2804   241.0
38.7500     -17371.7749  -17372.0196       0.2447   210.4
39.0000     -17371.6457  -17371.9091       0.2634   226.4
39.2500     -17371.4645  -17372.0225       0.5580   479.7
39.5000     -17371.7228  -17372.0302       0.3074   264.2
39.7500     -17371.6900  -17371.9799       0.2899   249.2
40.0000     -17371.5423  -17371.9273       0.3850   330.9
