Time[ps]      Etot[eV]     Epot[eV]     Ekin[eV]    T[K]
0.0000      -17370.1248  -17370.4124       0.2876   247.2
0.2500      -17369.8706  -17370.2132       0.3426   294.5
0.5000      -17369.8707  -17370.1266       0.2560   220.0
0.7500      -17369.9118  -17370.2179       0.3061   263.1
1.0000      -17369.7904  -17370.1175       0.3271   281.2
1.2500      -17369.8478  -17370.0883       0.2405   206.8
1.5000      -17369.9692  -17370.3843       0.4151   356.9
1.7500      -17370.5061  -17370.9253       0.4191   360.3
2.0000      -17371.1645  -17371.4619       0.2974   255.7
2.2500      -17371.5634  -17371.9078       0.3444   296.0
2.5000      -17371.4798  -17371.7715       0.2917   250.8
2.7500      -17371.2943  -17371.6358       0.3415   293.6
3.0000      -17371.3033  -17371.7071       0.4039   347.2
3.2500      -17371.3166  -17371.6948       0.3782   325.1
3.5000      -17371.5199  -17371.6736       0.1537   132.1
3.7500      -17371.4994  -17371.7572       0.2578   221.6
4.0000      -17371.2552  -17371.5677       0.3125   268.6
4.2500      -17371.2555  -17371.7458       0.4904   421.5
4.5000      -17371.4258  -17371.7287       0.3029   260.4
4.7500      -17371.4819  -17371.7236       0.2417   207.8
5.0000      -17371.2301  -17371.7311       0.5010   430.6
5.2500      -17371.4114  -17371.6998       0.2884   247.9
5.5000      -17371.5687  -17371.7802       0.2115   181.8
5.7500      -17371.3478  -17371.6589       0.3112   267.5
6.0000      -17371.3411  -17371.7128       0.3717   319.5
6.2500      -17371.3080  -17371.6730       0.3650   313.8
6.5000      -17371.3917  -17371.7614       0.3697   317.8
6.7500      -17371.3931  -17371.6704       0.2773   238.3
7.0000      -17371.4213  -17371.7472       0.3259   280.1
7.2500      -17371.3584  -17371.5856       0.2272   195.3
7.5000      -17371.5115  -17371.7328       0.2213   190.2
7.7500      -17371.3291  -17371.5610       0.2319   199.4
8.0000      -17371.0402  -17371.5905       0.5502   473.0
8.2500      -17371.2771  -17371.6505       0.3734   321.0
8.5000      -17371.2752  -17371.7119       0.4367   375.4
8.7500      -17371.1645  -17371.5320       0.3675   315.9
9.0000      -17371.4445  -17371.7919       0.3474   298.6
9.2500      -17371.4969  -17371.8291       0.3322   285.5
9.5000      -17371.4489  -17371.7515       0.3026   260.1
9.7500      -17371.1505  -17371.7726       0.6221   534.8
10.0000     -17371.1795  -17371.6535       0.4740   407.5
10.2500     -17371.3492  -17371.7866       0.4373   375.9
10.5000     -17371.3763  -17371.8013       0.4250   365.3
10.7500     -17371.2507  -17371.6544       0.4038   347.1
11.0000     -17371.2755  -17371.7103       0.4349   373.8
11.2500     -17371.3421  -17371.6396       0.2975   255.7
11.5000     -17371.3130  -17371.6348       0.3218   276.6
11.7500     -17371.5592  -17371.7761       0.2168   186.4
12.0000     -17371.2783  -17371.6946       0.4163   357.9
12.2500     -17371.4370  -17371.7104       0.2734   235.0
12.5000     -17371.2933  -17371.7133       0.4200   361.0
12.7500     -17371.4589  -17371.8327       0.3738   321.3
13.0000     -17371.3522  -17371.6200       0.2678   230.2
13.2500     -17371.2962  -17371.6102       0.3140   269.9
13.5000     -17371.4806  -17371.8256       0.3449   296.5
13.7500     -17371.4604  -17371.7995       0.3391   291.5
14.0000     -17371.4093  -17371.7933       0.3840   330.1
14.2500     -17371.3252  -17371.7318       0.4066   349.5
14.5000     -17371.3651  -17371.8047       0.4395   377.8
14.7500     -17371.1453  -17371.6562       0.5109   439.2
15.0000     -17371.3960  -17371.8364       0.4404   378.6
15.2500     -17371.4695  -17371.7230       0.2535   217.9
15.5000     -17371.4848  -17371.6795       0.1947   167.4
15.7500     -17371.5051  -17371.8733       0.3682   316.5
16.0000     -17371.5088  -17371.7391       0.2303   198.0
16.2500     -17371.5082  -17371.8383       0.3301   283.8
16.5000     -17371.2949  -17371.7685       0.4735   407.0
16.7500     -17371.4273  -17371.6606       0.2333   200.5
17.0000     -17371.3171  -17371.7171       0.4000   343.8
17.2500     -17371.2907  -17371.6564       0.3657   314.4
17.5000     -17371.5188  -17371.8541       0.3353   288.2
17.7500     -17371.4212  -17371.8166       0.3954   339.9
18.0000     -17371.2280  -17371.5857       0.3578   307.5
18.2500     -17371.4194  -17371.7145       0.2951   253.7
18.5000     -17371.2201  -17371.6075       0.3873   332.9
18.7500     -17371.4709  -17371.7689       0.2979   256.1
19.0000     -17371.1633  -17371.6291       0.4658   400.4
19.2500     -17371.2590  -17371.5995       0.3405   292.7
19.5000     -17371.3258  -17371.7183       0.3926   337.5
19.7500     -17371.3241  -17371.7004       0.3763   323.5
20.0000     -17371.3174  -17371.7229       0.4055   348.6
20.2500     -17371.0180  -17371.7609       0.7430   638.7
20.5000     -17371.2374  -17371.4628       0.2254   193.8
20.7500     -17371.2364  -17371.6444       0.4081   350.8
21.0000     -17371.3508  -17371.6835       0.3327   286.0
21.2500     -17371.3817  -17371.7678       0.3862   332.0
21.5000     -17371.2229  -17371.6937       0.4707   404.6
21.7500     -17371.4062  -17371.6300       0.2238   192.4
22.0000     -17371.2907  -17371.6262       0.3354   288.3
22.2500     -17371.5085  -17371.8462       0.3377   290.3
22.5000     -17371.3477  -17371.6009       0.2532   217.6
22.7500     -17371.3037  -17371.6971       0.3934   338.2
23.0000     -17370.9677  -17371.6547       0.6871   590.6
23.2500     -17371.5710  -17371.8105       0.2394   205.8
23.5000     -17371.3898  -17371.7887       0.3989   342.9
23.7500     -17371.4065  -17371.6231       0.2166   186.2
24.0000     -17371.2966  -17371.6813       0.3847   330.7
24.2500     -17371.3385  -17371.7463       0.4078   350.6
24.5000     -17371.2474  -17371.7701       0.5227   449.3
24.7500     -17371.4669  -17371.7144       0.2476   212.8
25.0000     -17371.3540  -17371.7686       0.4147   356.4
25.2500     -17371.4619  -17371.6980       0.2361   202.9
25.5000     -17371.3825  -17371.7196       0.3371   289.8
25.7500     -17371.4395  -17371.8308       0.3913   336.4
26.0000     -17371.2481  -17371.6315       0.3835   329.6
26.2500     -17371.4186  -17371.7324       0.3138   269.8
26.5000     -17371.3353  -17371.7666       0.4313   370.7
26.7500     -17371.4468  -17371.7661       0.3194   274.5
27.0000     -17371.4439  -17371.8368       0.3929   337.8
27.2500     -17371.4349  -17371.7315       0.2966   255.0
27.5000     -17371.5358  -17371.7667       0.2310   198.5
27.7500     -17371.5291  -17371.8038       0.2747   236.2
28.0000     -17371.3738  -17371.8502       0.4765   409.6
28.2500     -17371.4293  -17371.8266       0.3973   341.5
28.5000     -17371.4025  -17371.7731       0.3706   318.5
28.7500     -17371.3941  -17371.7496       0.3556   305.6
29.0000     -17371.4209  -17371.8281       0.4072   350.0
29.2500     -17371.5177  -17371.7618       0.2441   209.8
29.5000     -17371.4567  -17371.8729       0.4162   357.7
29.7500     -17371.2894  -17371.7076       0.4182   359.5
30.0000     -17371.4827  -17371.7947       0.3120   268.2
30.2500     -17371.3451  -17371.6816       0.3365   289.3
30.5000     -17371.6110  -17371.8761       0.2651   227.9
30.7500     -17371.5433  -17371.8732       0.3298   283.5
31.0000     -17371.2477  -17371.7151       0.4674   401.8
31.2500     -17371.4401  -17371.7359       0.2958   254.3
31.5000     -17371.3906  -17371.6978       0.3072   264.1
31.7500     -17371.4287  -17371.7447       0.3160   271.6
32.0000     -17371.3610  -17371.6920       0.3310   284.5
32.2500     -17371.2224  -17371.6796       0.4572   393.0
32.5000     -17371.2888  -17371.5786       0.2898   249.1
32.7500     -17371.3528  -17371.6909       0.3381   290.7
33.0000     -17371.4305  -17371.7003       0.2698   231.9
33.2500     -17371.3688  -17371.7522       0.3834   329.6
33.5000     -17371.5651  -17371.7440       0.1789   153.7
33.7500     -17371.3061  -17371.6015       0.2954   253.9
34.0000     -17371.4483  -17371.7582       0.3099   266.4
34.2500     -17371.2938  -17371.4770       0.1833   157.5
34.5000     -17371.4520  -17371.7442       0.2922   251.1
34.7500     -17371.3365  -17371.6754       0.3389   291.3
35.0000     -17371.3534  -17371.6816       0.3282   282.1
35.2500     -17371.2804  -17371.7031       0.4227   363.3
35.5000     -17371.4697  -17371.6990       0.2293   197.1
35.7500     -17371.2641  -17371.6636       0.3995   343.4
36.0000     -17371.4042  -17371.6260       0.2218   190.7
36.2500     -17371.1549  -17371.4235       0.2686   230.8
36.5000     -17371.3914  -17371.6375       0.2461   211.6
36.7500     -17371.4956  -17371.7104       0.2148   184.7
37.0000     -17371.2006  -17371.5796       0.3790   325.8
37.2500     -17371.3938  -17371.7753       0.3815   328.0
37.5000     -17371.2346  -17371.6123       0.3777   324.7
37.7500     -17371.1864  -17371.5043       0.3180   273.3
38.0000     -17371.3408  -17371.4936       0.1528   131.4
38.2500     -17371.2909  -17371.5125       0.2216   190.5
38.5000     -17371.3150  -17371.5570       0.2421   208.1
38.7500     -17371.1086  -17371.7050       0.5964   512.7
39.0000     -17371.2650  -17371.6054       0.3404   292.6
39.2500     -17371.1037  -17371.6568       0.5531   475.4
39.5000     -17371.4603  -17371.6792       0.2190   188.2
39.7500     -17371.3813  -17371.6823       0.3010   258.8
40.0000     -17371.4249  -17371.6902       0.2652   228.0
