Time[ps]      Etot[eV]     Epot[eV]     Ekin[eV]    T[K]
0.0000      -17370.0452  -17370.4124       0.3672   315.6
0.2500      -17370.0483  -17370.2830       0.2346   201.7
0.5000      -17369.9444  -17370.2373       0.2929   251.8
0.7500      -17369.8337  -17370.2391       0.4054   348.5
1.0000      -17369.9552  -17370.2859       0.3307   284.3
1.2500      -17369.8012  -17370.1812       0.3800   326.7
1.5000      -17370.0257  -17370.2287       0.2030   174.5
1.7500      -17369.9518  -17370.2143       0.2624   225.6
2.0000      -17369.8089  -17370.1086       0.2997   257.6
2.2500      -17369.8211  -17370.0720       0.2508   215.6
2.5000      -17369.7893  -17370.0762       0.2868   246.5
2.7500      -17369.9035  -17370.1228       0.2193   188.5
3.0000      -17369.6047  -17370.0783       0.4736   407.1
3.2500      -17369.8558  -17370.1738       0.3179   273.3
3.5000      -17369.7407  -17370.0567       0.3160   271.7
3.7500      -17369.6840  -17369.9862       0.3022   259.8
4.0000      -17369.7936  -17370.0387       0.2451   210.7
4.2500      -17369.7009  -17370.0906       0.3897   335.0
4.5000      -17369.7794  -17370.1566       0.3772   324.3
4.7500      -17369.6021  -17369.9768       0.3746   322.0
5.0000      -17369.6980  -17370.1363       0.4383   376.8
5.2500      -17370.0242  -17370.2432       0.2190   188.2
5.5000      -17369.9036  -17370.0980       0.1944   167.1
5.7500      -17369.8402  -17370.2156       0.3755   322.7
6.0000      -17369.7776  -17370.0859       0.3083   265.0
6.2500      -17369.4078  -17369.9928       0.5849   502.8
6.5000      -17369.7151  -17370.1214       0.4063   349.3
6.7500      -17369.8413  -17370.1121       0.2708   232.7
7.0000      -17369.5387  -17370.1209       0.5823   500.5
7.2500      -17369.7232  -17370.1857       0.4625   397.6
7.5000      -17369.7080  -17370.0873       0.3793   326.1
7.7500      -17369.8041  -17370.0673       0.2632   226.2
8.0000      -17369.7741  -17370.0519       0.2779   238.9
8.2500      -17369.8374  -17370.0787       0.2412   207.3
8.5000      -17369.5025  -17370.0614       0.5588   480.4
8.7500      -17369.7041  -17370.1857       0.4816   414.0
9.0000      -17369.3757  -17370.0462       0.6706   576.4
9.2500      -17369.8400  -17370.0739       0.2340   201.1
9.5000      -17369.8401  -17370.1907       0.3506   301.4
9.7500      -17369.5561  -17370.1737       0.6176   530.9
10.0000     -17369.6296  -17370.0796       0.4500   386.8
10.2500     -17369.8249  -17370.1246       0.2997   257.6
10.5000     -17369.6639  -17369.9766       0.3127   268.8
10.7500     -17369.7986  -17370.2963       0.4977   427.8
11.0000     -17369.7859  -17370.0754       0.2895   248.8
11.2500     -17369.7887  -17370.0566       0.2680   230.3
11.5000     -17369.6805  -17370.1035       0.4230   363.6
11.7500     -17369.4032  -17369.9970       0.5938   510.4
12.0000     -17369.5167  -17369.9124       0.3957   340.2
12.2500     -17369.8167  -17370.1229       0.3062   263.2
12.5000     -17370.0074  -17370.2190       0.2116   181.9
12.7500     -17369.7709  -17370.1919       0.4210   361.9
13.0000     -17369.8971  -17370.2236       0.3265   280.6
13.2500     -17369.7990  -17370.1442       0.3452   296.7
13.5000     -17369.7996  -17370.1925       0.3929   337.8
13.7500     -17369.6832  -17370.0332       0.3500   300.9
14.0000     -17369.6633  -17370.0628       0.3995   343.4
14.2500     -17369.9118  -17370.1752       0.2634   226.4
14.5000     -17369.8950  -17370.1885       0.2935   252.3
14.7500     -17369.9050  -17370.2224       0.3174   272.8
15.0000     -17369.7073  -17370.0284       0.3211   276.0
15.2500     -17369.6716  -17370.1444       0.4727   406.4
15.5000     -17369.7362  -17370.1017       0.3655   314.2
15.7500     -17369.9194  -17370.1061       0.1866   160.4
16.0000     -17369.4989  -17370.0305       0.5316   456.9
16.2500     -17369.7616  -17369.9971       0.2355   202.4
16.5000     -17369.9783  -17370.1906       0.2124   182.6
16.7500     -17369.5455  -17369.9072       0.3617   310.9
17.0000     -17369.7246  -17370.2086       0.4840   416.0
17.2500     -17369.7722  -17370.0582       0.2859   245.8
17.5000     -17369.8714  -17370.1628       0.2914   250.5
17.7500     -17369.6688  -17370.0721       0.4034   346.7
18.0000     -17369.8787  -17370.1854       0.3067   263.6
18.2500     -17369.7184  -17370.1973       0.4788   411.6
18.5000     -17369.6689  -17370.0626       0.3937   338.4
18.7500     -17369.6465  -17370.0899       0.4434   381.1
19.0000     -17369.5647  -17370.1673       0.6026   518.0
19.2500     -17369.8266  -17370.0819       0.2554   219.5
19.5000     -17369.7822  -17370.2569       0.4747   408.1
19.7500     -17369.5595  -17370.0062       0.4468   384.0
20.0000     -17369.7825  -17370.1751       0.3926   337.5
20.2500     -17369.6373  -17370.1732       0.5359   460.7
20.5000     -17369.7439  -17370.1769       0.4330   372.2
20.7500     -17369.7555  -17370.2407       0.4852   417.1
21.0000     -17370.0778  -17370.2310       0.1532   131.7
21.2500     -17369.7343  -17370.0326       0.2982   256.4
21.5000     -17369.6091  -17370.0346       0.4255   365.7
21.7500     -17369.3194  -17370.0859       0.7666   658.9
22.0000     -17369.5814  -17370.0891       0.5077   436.4
22.2500     -17369.9023  -17370.1372       0.2348   201.9
22.5000     -17369.8151  -17370.1178       0.3027   260.2
22.7500     -17369.5319  -17370.0625       0.5306   456.1
23.0000     -17369.6486  -17370.0313       0.3827   329.0
23.2500     -17369.8260  -17370.1891       0.3631   312.1
23.5000     -17369.7854  -17370.0211       0.2356   202.5
23.7500     -17369.8068  -17370.1787       0.3718   319.6
24.0000     -17369.9096  -17370.1052       0.1956   168.1
24.2500     -17369.8431  -17370.1477       0.3046   261.8
24.5000     -17369.7953  -17370.1244       0.3291   282.9
24.7500     -17369.6373  -17370.0574       0.4201   361.1
25.0000     -17369.8960  -17370.1123       0.2163   186.0
25.2500     -17369.6975  -17370.1075       0.4100   352.4
25.5000     -17369.8214  -17370.1519       0.3305   284.1
25.7500     -17369.8063  -17370.1115       0.3052   262.4
26.0000     -17369.5021  -17369.8778       0.3757   323.0
26.2500     -17369.6461  -17370.2478       0.6017   517.3
26.5000     -17369.7097  -17370.1102       0.4005   344.3
26.7500     -17369.7290  -17370.1362       0.4072   350.1
27.0000     -17370.0226  -17370.3260       0.3034   260.8
27.2500     -17369.9847  -17370.2785       0.2938   252.6
27.5000     -17370.0514  -17370.2751       0.2237   192.3
27.7500     -17370.1253  -17370.3206       0.1954   167.9
28.0000     -17369.8803  -17370.3173       0.4370   375.7
28.2500     -17370.0617  -17370.3364       0.2748   236.2
28.5000     -17370.0911  -17370.4387       0.3477   298.9
28.7500     -17369.9465  -17370.2873       0.3408   292.9
29.0000     -17369.7682  -17370.0708       0.3026   260.1
29.2500     -17370.1273  -17370.4197       0.2925   251.4
29.5000     -17370.0993  -17370.3672       0.2679   230.3
29.7500     -17370.0106  -17370.3572       0.3467   298.0
30.0000     -17369.9498  -17370.3328       0.3830   329.2
30.2500     -17369.7276  -17370.1019       0.3743   321.7
30.5000     -17369.8805  -17370.3021       0.4216   362.4
30.7500     -17369.9365  -17370.2206       0.2841   244.2
31.0000     -17369.7223  -17370.1131       0.3909   336.0
31.2500     -17369.8179  -17370.1228       0.3049   262.1
31.5000     -17369.7701  -17370.0844       0.3143   270.2
31.7500     -17369.6742  -17370.0014       0.3272   281.3
32.0000     -17369.7494  -17370.1186       0.3692   317.3
32.2500     -17369.8876  -17370.1389       0.2513   216.0
32.5000     -17369.8956  -17370.2155       0.3199   275.0
32.7500     -17369.7206  -17370.0207       0.3001   257.9
33.0000     -17369.8830  -17370.2869       0.4039   347.2
33.2500     -17369.7070  -17370.0733       0.3663   314.9
33.5000     -17369.7992  -17370.2241       0.4248   365.2
33.7500     -17369.8505  -17370.0968       0.2464   211.8
34.0000     -17369.8994  -17370.2528       0.3534   303.8
34.2500     -17369.7816  -17370.0910       0.3094   266.0
34.5000     -17369.7505  -17370.0814       0.3309   284.5
34.7500     -17369.7534  -17370.0411       0.2877   247.3
35.0000     -17369.7353  -17370.1839       0.4486   385.6
35.2500     -17369.9197  -17370.1221       0.2023   173.9
35.5000     -17369.7870  -17370.0565       0.2695   231.6
35.7500     -17369.6585  -17370.0045       0.3460   297.4
36.0000     -17369.7109  -17370.0578       0.3470   298.3
36.2500     -17369.8535  -17370.0457       0.1922   165.2
36.5000     -17369.9042  -17370.1927       0.2885   248.0
36.7500     -17369.7772  -17370.1342       0.3570   306.9
37.0000     -17369.8378  -17370.2033       0.3654   314.1
37.2500     -17369.8165  -17370.1955       0.3790   325.8
37.5000     -17369.8898  -17370.2121       0.3223   277.0
37.7500     -17369.4406  -17370.0488       0.6081   522.8
38.0000     -17369.8967  -17370.2079       0.3112   267.5
38.2500     -17369.6012  -17370.0925       0.4913   422.3
38.5000     -17369.8284  -17370.1821       0.3538   304.1
38.7500     -17369.6190  -17369.9720       0.3530   303.5
39.0000     -17369.8475  -17370.1214       0.2739   235.4
39.2500     -17369.6056  -17370.1709       0.5653   485.9
39.5000     -17369.7676  -17370.0924       0.3249   279.3
39.7500     -17369.7384  -17370.2258       0.4874   419.0
40.0000     -17369.9958  -17370.2534       0.2576   221.4
