Time[ps]      Etot[eV]     Epot[eV]     Ekin[eV]    T[K]
0.0000      -17369.9809  -17370.4124       0.4315   370.9
0.2500      -17369.8938  -17370.2563       0.3625   311.6
0.5000      -17369.8629  -17370.2222       0.3593   308.9
0.7500      -17369.8954  -17370.2251       0.3297   283.4
1.0000      -17369.8631  -17370.1659       0.3028   260.3
1.2500      -17369.8105  -17370.1491       0.3385   291.0
1.5000      -17369.8538  -17370.1560       0.3022   259.8
1.7500      -17369.9691  -17370.4285       0.4594   394.9
2.0000      -17370.8300  -17371.1873       0.3573   307.1
2.2500      -17371.1912  -17371.4905       0.2993   257.2
2.5000      -17370.9984  -17371.5504       0.5520   474.5
2.7500      -17371.0676  -17371.4486       0.3810   327.5
3.0000      -17371.1176  -17371.4596       0.3420   294.0
3.2500      -17371.2652  -17371.5178       0.2526   217.1
3.5000      -17371.2242  -17371.4427       0.2186   187.9
3.7500      -17371.0584  -17371.5394       0.4810   413.5
4.0000      -17371.1569  -17371.4580       0.3011   258.9
4.2500      -17371.1165  -17371.5503       0.4338   372.9
4.5000      -17370.8760  -17371.4110       0.5350   459.9
4.7500      -17371.2082  -17371.4934       0.2853   245.2
5.0000      -17371.1045  -17371.3995       0.2951   253.7
5.2500      -17371.2416  -17371.4384       0.1968   169.2
5.5000      -17371.1700  -17371.4122       0.2422   208.2
5.7500      -17371.0779  -17371.4076       0.3297   283.4
6.0000      -17371.1562  -17371.5013       0.3451   296.7
6.2500      -17370.8385  -17371.3059       0.4674   401.8
6.5000      -17371.1658  -17371.5810       0.4151   356.8
6.7500      -17371.1625  -17371.5596       0.3972   341.4
7.0000      -17371.0912  -17371.4735       0.3823   328.6
7.2500      -17371.1710  -17371.5486       0.3776   324.6
7.5000      -17371.0683  -17371.4612       0.3929   337.8
7.7500      -17371.0394  -17371.4535       0.4141   356.0
8.0000      -17371.2389  -17371.5501       0.3113   267.6
8.2500      -17371.1903  -17371.4002       0.2099   180.4
8.5000      -17371.2723  -17371.6213       0.3490   300.0
8.7500      -17370.8149  -17371.3765       0.5616   482.8
9.0000      -17370.8907  -17371.3625       0.4719   405.6
9.2500      -17371.1832  -17371.5106       0.3274   281.4
9.5000      -17371.1714  -17371.5789       0.4074   350.2
9.7500      -17371.3544  -17371.6063       0.2519   216.6
10.0000     -17371.2485  -17371.5818       0.3333   286.5
10.2500     -17371.3422  -17371.6176       0.2754   236.7
10.5000     -17371.1935  -17371.5788       0.3853   331.2
10.7500     -17371.0978  -17371.3878       0.2900   249.3
11.0000     -17371.2739  -17371.5854       0.3115   267.8
11.2500     -17371.3553  -17371.6154       0.2601   223.6
11.5000     -17371.0887  -17371.4431       0.3544   304.6
11.7500     -17371.0236  -17371.5311       0.5076   436.3
12.0000     -17371.1317  -17371.5167       0.3849   330.9
12.2500     -17371.0526  -17371.4940       0.4414   379.4
12.5000     -17371.0041  -17371.4613       0.4571   393.0
12.7500     -17371.3023  -17371.6251       0.3228   277.5
13.0000     -17371.1592  -17371.4536       0.2945   253.1
13.2500     -17371.1837  -17371.6300       0.4463   383.6
13.5000     -17371.3354  -17371.5728       0.2374   204.0
13.7500     -17371.1873  -17371.4992       0.3119   268.1
14.0000     -17371.1832  -17371.5211       0.3378   290.4
14.2500     -17371.1207  -17371.4108       0.2901   249.4
14.5000     -17371.2077  -17371.5510       0.3433   295.1
14.7500     -17371.1109  -17371.4873       0.3764   323.5
15.0000     -17371.0612  -17371.5277       0.4665   401.0
15.2500     -17371.2975  -17371.5518       0.2543   218.6
15.5000     -17370.9625  -17371.4116       0.4491   386.0
15.7500     -17371.0795  -17371.5594       0.4798   412.5
16.0000     -17371.2100  -17371.4131       0.2032   174.6
16.2500     -17371.3031  -17371.5338       0.2308   198.4
16.5000     -17371.2365  -17371.5081       0.2716   233.5
16.7500     -17371.1642  -17371.4054       0.2412   207.4
17.0000     -17370.9681  -17371.2154       0.2474   212.6
17.2500     -17371.3483  -17371.4806       0.1323   113.8
17.5000     -17371.1710  -17371.5439       0.3728   320.5
17.7500     -17371.0973  -17371.4317       0.3344   287.4
18.0000     -17371.1377  -17371.4483       0.3106   267.0
18.2500     -17371.0238  -17371.3418       0.3180   273.4
18.5000     -17371.3162  -17371.5301       0.2140   183.9
18.7500     -17371.4358  -17371.6086       0.1728   148.6
19.0000     -17371.1230  -17371.4965       0.3735   321.1
19.2500     -17371.0171  -17371.4135       0.3964   340.7
19.5000     -17371.0914  -17371.4395       0.3481   299.2
19.7500     -17371.1598  -17371.5315       0.3717   319.5
20.0000     -17371.2340  -17371.5528       0.3189   274.1
20.2500     -17371.2041  -17371.5174       0.3134   269.4
20.5000     -17371.2016  -17371.5323       0.3307   284.3
20.7500     -17371.2301  -17371.5053       0.2752   236.5
21.0000     -17371.1317  -17371.5414       0.4096   352.1
21.2500     -17371.0134  -17371.4245       0.4111   353.4
21.5000     -17371.0800  -17371.3587       0.2786   239.5
21.7500     -17371.1910  -17371.4951       0.3042   261.5
22.0000     -17371.4049  -17371.6932       0.2883   247.8
22.2500     -17371.1131  -17371.5494       0.4364   375.1
22.5000     -17371.2787  -17371.5663       0.2876   247.2
22.7500     -17371.2089  -17371.4938       0.2850   245.0
23.0000     -17371.2398  -17371.5013       0.2615   224.8
23.2500     -17371.0319  -17371.5103       0.4784   411.2
23.5000     -17371.0358  -17371.5267       0.4909   422.0
23.7500     -17370.9331  -17371.4470       0.5139   441.7
24.0000     -17371.2620  -17371.5619       0.2998   257.7
24.2500     -17371.3129  -17371.5425       0.2296   197.4
24.5000     -17370.9828  -17371.3727       0.3898   335.1
24.7500     -17371.2133  -17371.5046       0.2913   250.4
25.0000     -17371.0210  -17371.3456       0.3247   279.1
25.2500     -17371.1572  -17371.5129       0.3556   305.7
25.5000     -17371.1069  -17371.4073       0.3005   258.3
25.7500     -17370.9913  -17371.2994       0.3082   264.9
26.0000     -17371.1007  -17371.5017       0.4011   344.8
26.2500     -17371.2636  -17371.5619       0.2983   256.4
26.5000     -17370.9937  -17371.4979       0.5042   433.4
26.7500     -17371.2802  -17371.5315       0.2513   216.0
27.0000     -17370.9895  -17371.5136       0.5241   450.5
27.2500     -17371.2076  -17371.5730       0.3654   314.1
27.5000     -17370.9818  -17371.4283       0.4465   383.8
27.7500     -17371.4021  -17371.5827       0.1807   155.3
28.0000     -17371.0514  -17371.5766       0.5251   451.4
28.2500     -17371.1465  -17371.4318       0.2852   245.2
28.5000     -17371.1515  -17371.4288       0.2773   238.4
28.7500     -17370.9767  -17371.4088       0.4321   371.4
29.0000     -17371.2712  -17371.4769       0.2057   176.8
29.2500     -17371.1392  -17371.6477       0.5085   437.1
29.5000     -17371.1779  -17371.4677       0.2897   249.1
29.7500     -17371.0730  -17371.3944       0.3214   276.3
30.0000     -17371.1190  -17371.4172       0.2982   256.3
30.2500     -17371.1484  -17371.4353       0.2870   246.7
30.5000     -17371.0066  -17371.4582       0.4516   388.2
30.7500     -17371.1467  -17371.4646       0.3179   273.3
31.0000     -17371.2695  -17371.4518       0.1823   156.7
31.2500     -17371.3089  -17371.4607       0.1518   130.5
31.5000     -17371.0412  -17371.3182       0.2770   238.1
31.7500     -17370.9286  -17371.5278       0.5992   515.1
32.0000     -17371.1811  -17371.6403       0.4592   394.7
32.2500     -17371.2128  -17371.4913       0.2785   239.4
32.5000     -17370.9683  -17371.2799       0.3117   267.9
32.7500     -17371.1746  -17371.5662       0.3916   336.6
33.0000     -17371.0624  -17371.5002       0.4379   376.4
33.2500     -17371.1920  -17371.4509       0.2588   222.5
33.5000     -17371.2224  -17371.5898       0.3674   315.8
33.7500     -17371.0708  -17371.4377       0.3669   315.4
34.0000     -17371.0617  -17371.4402       0.3785   325.4
34.2500     -17371.1700  -17371.4719       0.3019   259.5
34.5000     -17370.9115  -17371.4236       0.5121   440.2
34.7500     -17370.9833  -17371.4362       0.4529   389.3
35.0000     -17371.1812  -17371.5476       0.3664   315.0
35.2500     -17371.4562  -17371.5926       0.1363   117.2
35.5000     -17371.0757  -17371.5284       0.4527   389.1
35.7500     -17371.0147  -17371.3797       0.3649   313.7
36.0000     -17371.1573  -17371.5010       0.3437   295.5
36.2500     -17371.2144  -17371.5700       0.3556   305.7
36.5000     -17371.2448  -17371.5392       0.2944   253.0
36.7500     -17370.9297  -17371.3496       0.4199   360.9
37.0000     -17371.1131  -17371.3697       0.2566   220.6
37.2500     -17370.9750  -17371.4386       0.4636   398.5
37.5000     -17371.4084  -17371.5931       0.1846   158.7
37.7500     -17370.6622  -17371.2611       0.5989   514.8
38.0000     -17371.1108  -17371.4853       0.3745   321.9
38.2500     -17371.2634  -17371.5665       0.3031   260.6
38.5000     -17371.2055  -17371.5272       0.3217   276.5
38.7500     -17371.1307  -17371.4918       0.3611   310.4
39.0000     -17371.0626  -17371.3041       0.2416   207.6
39.2500     -17370.9301  -17371.2769       0.3468   298.1
39.5000     -17371.1930  -17371.5893       0.3963   340.7
39.7500     -17371.2070  -17371.5101       0.3031   260.5
40.0000     -17371.1745  -17371.5520       0.3776   324.6
