Time[ps]      Etot[eV]     Epot[eV]     Ekin[eV]    T[K]
0.0000      -17370.0450  -17370.4124       0.3673   315.8
0.2500      -17369.8886  -17370.2562       0.3676   316.0
0.5000      -17369.9327  -17370.1833       0.2507   215.5
0.7500      -17369.8639  -17370.2919       0.4280   367.9
1.0000      -17369.7961  -17370.0356       0.2395   205.9
1.2500      -17369.4208  -17369.9362       0.5154   443.0
1.5000      -17369.8328  -17370.1679       0.3351   288.0
1.7500      -17370.3489  -17370.5674       0.2184   187.8
2.0000      -17370.6086  -17370.9631       0.3545   304.7
2.2500      -17371.3315  -17371.5465       0.2150   184.9
2.5000      -17371.5834  -17371.8805       0.2971   255.4
2.7500      -17371.6772  -17371.9053       0.2281   196.1
3.0000      -17371.7425  -17371.9782       0.2357   202.6
3.2500      -17371.7707  -17372.0115       0.2407   206.9
3.5000      -17371.5149  -17371.9588       0.4439   381.6
3.7500      -17371.4577  -17371.9595       0.5018   431.3
4.0000      -17371.6044  -17371.8987       0.2943   253.0
4.2500      -17371.6035  -17371.9588       0.3553   305.4
4.5000      -17371.6354  -17371.9928       0.3574   307.2
4.7500      -17371.6244  -17372.0001       0.3757   323.0
5.0000      -17371.5038  -17371.9398       0.4360   374.8
5.2500      -17371.4687  -17371.9090       0.4403   378.5
5.5000      -17371.5854  -17371.9570       0.3716   319.4
5.7500      -17371.5556  -17371.8850       0.3295   283.2
6.0000      -17371.5913  -17371.9645       0.3733   320.9
6.2500      -17371.6393  -17371.9504       0.3111   267.4
6.5000      -17371.5815  -17371.9867       0.4052   348.3
6.7500      -17371.4791  -17371.9176       0.4385   376.9
7.0000      -17371.7423  -17372.0577       0.3154   271.1
7.2500      -17371.6218  -17371.9430       0.3212   276.1
7.5000      -17371.4661  -17371.9177       0.4516   388.2
7.7500      -17371.6115  -17371.8700       0.2585   222.2
8.0000      -17371.5392  -17371.9716       0.4325   371.7
8.2500      -17371.9051  -17372.0047       0.0997    85.7
8.5000      -17371.4448  -17371.8409       0.3961   340.5
8.7500      -17371.7075  -17371.9621       0.2546   218.8
9.0000      -17371.6873  -17371.9347       0.2474   212.7
9.2500      -17371.5949  -17371.9126       0.3177   273.1
9.5000      -17371.6149  -17371.9278       0.3130   269.0
9.7500      -17371.6747  -17372.0088       0.3341   287.2
10.0000     -17371.6320  -17371.8624       0.2305   198.1
10.2500     -17371.5207  -17371.8825       0.3617   310.9
10.5000     -17371.4629  -17371.8684       0.4055   348.6
10.7500     -17371.6582  -17371.8838       0.2256   193.9
11.0000     -17371.5665  -17371.8812       0.3147   270.5
11.2500     -17371.5124  -17371.7945       0.2821   242.5
11.5000     -17371.6696  -17371.9611       0.2916   250.6
11.7500     -17371.4808  -17371.8957       0.4149   356.6
12.0000     -17371.6439  -17372.0392       0.3953   339.8
12.2500     -17371.6338  -17371.9408       0.3070   263.9
12.5000     -17371.5399  -17371.7992       0.2593   222.9
12.7500     -17371.3969  -17371.8277       0.4308   370.3
13.0000     -17371.5618  -17371.9124       0.3506   301.4
13.2500     -17371.6122  -17371.8613       0.2491   214.1
13.5000     -17371.6031  -17371.9662       0.3632   312.2
13.7500     -17371.4339  -17371.9183       0.4844   416.4
14.0000     -17371.2760  -17371.7501       0.4742   407.6
14.2500     -17371.4381  -17371.6773       0.2392   205.7
14.5000     -17371.7727  -17372.0293       0.2566   220.5
14.7500     -17371.7272  -17372.0491       0.3219   276.7
15.0000     -17371.4320  -17371.8255       0.3935   338.2
15.2500     -17371.5712  -17371.8791       0.3080   264.7
15.5000     -17371.3922  -17371.7818       0.3896   334.9
15.7500     -17371.6378  -17371.8989       0.2611   224.4
16.0000     -17371.6369  -17371.8766       0.2397   206.0
16.2500     -17371.3089  -17371.8845       0.5756   494.8
16.5000     -17371.6297  -17371.9402       0.3104   266.9
16.7500     -17371.4985  -17371.8928       0.3943   338.9
17.0000     -17371.4974  -17371.9830       0.4856   417.4
17.2500     -17371.4041  -17371.8478       0.4437   381.4
17.5000     -17371.3015  -17371.7227       0.4211   362.0
17.7500     -17371.5913  -17371.9629       0.3716   319.4
18.0000     -17371.4227  -17371.8398       0.4171   358.6
18.2500     -17371.4820  -17371.8375       0.3554   305.5
18.5000     -17371.5306  -17371.8016       0.2710   233.0
18.7500     -17371.6041  -17371.9181       0.3139   269.9
19.0000     -17371.6273  -17371.8866       0.2593   222.9
19.2500     -17371.6529  -17371.9194       0.2665   229.1
19.5000     -17371.4589  -17371.8407       0.3818   328.2
19.7500     -17371.5671  -17371.8902       0.3231   277.8
20.0000     -17371.6570  -17371.8989       0.2418   207.9
20.2500     -17371.3471  -17371.7776       0.4305   370.1
20.5000     -17371.5141  -17371.8410       0.3269   281.0
20.7500     -17371.3574  -17371.8271       0.4698   403.8
21.0000     -17371.5748  -17371.9326       0.3578   307.6
21.2500     -17371.7584  -17371.9946       0.2363   203.1
21.5000     -17371.6286  -17371.8858       0.2572   221.1
21.7500     -17371.5973  -17371.9685       0.3712   319.1
22.0000     -17371.4862  -17371.9648       0.4786   411.4
22.2500     -17371.5789  -17371.8662       0.2872   246.9
22.5000     -17371.5589  -17371.8523       0.2934   252.2
22.7500     -17371.4036  -17371.8644       0.4608   396.1
23.0000     -17371.6002  -17371.8815       0.2813   241.8
23.2500     -17371.5787  -17371.8528       0.2741   235.6
23.5000     -17371.5311  -17371.8777       0.3466   298.0
23.7500     -17371.6878  -17371.9663       0.2785   239.4
24.0000     -17371.6119  -17371.9034       0.2915   250.6
24.2500     -17371.5314  -17372.0165       0.4851   417.0
24.5000     -17371.4309  -17371.7358       0.3049   262.1
24.7500     -17371.5561  -17371.9182       0.3621   311.3
25.0000     -17371.5554  -17371.9121       0.3566   306.6
25.2500     -17371.7452  -17371.8994       0.1542   132.6
25.5000     -17371.6219  -17371.9138       0.2919   250.9
25.7500     -17371.6995  -17371.8683       0.1688   145.1
26.0000     -17371.6526  -17371.8524       0.1998   171.7
26.2500     -17371.4061  -17371.8008       0.3947   339.3
26.5000     -17371.4162  -17371.8264       0.4101   352.6
26.7500     -17371.5990  -17371.9391       0.3401   292.3
27.0000     -17371.4581  -17371.8930       0.4349   373.8
27.2500     -17371.3809  -17371.8151       0.4341   373.2
27.5000     -17371.5770  -17371.8706       0.2935   252.3
27.7500     -17371.4669  -17371.7703       0.3034   260.8
28.0000     -17371.6415  -17371.8542       0.2127   182.8
28.2500     -17371.4172  -17371.7024       0.2852   245.1
28.5000     -17371.5183  -17371.8937       0.3754   322.7
28.7500     -17371.4573  -17371.8838       0.4266   366.7
29.0000     -17371.6082  -17371.9140       0.3058   262.9
29.2500     -17371.4315  -17371.7721       0.3406   292.8
29.5000     -17371.4551  -17371.7746       0.3196   274.7
29.7500     -17371.3916  -17371.7137       0.3220   276.8
30.0000     -17371.4248  -17371.7847       0.3599   309.4
30.2500     -17371.5082  -17371.9128       0.4047   347.8
30.5000     -17371.3027  -17371.7959       0.4932   423.9
30.7500     -17371.6640  -17371.9856       0.3215   276.4
31.0000     -17371.5721  -17371.8696       0.2974   255.7
31.2500     -17371.4395  -17371.8056       0.3660   314.7
31.5000     -17371.5003  -17371.8031       0.3028   260.2
31.7500     -17371.3212  -17371.6471       0.3260   280.2
32.0000     -17371.6131  -17371.8388       0.2257   194.0
32.2500     -17371.3560  -17371.7584       0.4025   346.0
32.5000     -17371.3957  -17371.8426       0.4468   384.1
32.7500     -17371.5156  -17371.8238       0.3082   264.9
33.0000     -17371.6280  -17371.9116       0.2836   243.7
33.2500     -17371.3706  -17371.7238       0.3532   303.6
33.5000     -17371.5375  -17371.9340       0.3965   340.8
33.7500     -17371.3572  -17371.8784       0.5212   448.0
34.0000     -17371.4151  -17371.6007       0.1856   159.5
34.2500     -17371.4316  -17371.7771       0.3456   297.0
34.5000     -17371.6152  -17371.8162       0.2010   172.8
34.7500     -17371.3633  -17371.7612       0.3979   342.0
35.0000     -17371.4987  -17371.8535       0.3548   305.0
35.2500     -17371.4441  -17371.8807       0.4366   375.3
35.5000     -17371.5003  -17371.7340       0.2337   200.9
35.7500     -17371.4438  -17371.8004       0.3566   306.6
36.0000     -17371.7181  -17372.0054       0.2872   246.9
36.2500     -17371.5481  -17371.8456       0.2976   255.8
36.5000     -17371.3426  -17371.7950       0.4523   388.8
36.7500     -17371.2691  -17371.8431       0.5741   493.5
37.0000     -17371.1900  -17371.6037       0.4137   355.6
37.2500     -17371.4471  -17371.8544       0.4072   350.1
37.5000     -17371.4439  -17371.8202       0.3763   323.5
37.7500     -17371.4758  -17371.8520       0.3762   323.4
38.0000     -17371.4850  -17371.8397       0.3547   304.9
38.2500     -17371.5932  -17371.9177       0.3246   279.0
38.5000     -17371.4719  -17371.8971       0.4252   365.5
38.7500     -17371.4164  -17371.8758       0.4594   394.9
39.0000     -17371.3785  -17372.0076       0.6291   540.8
39.2500     -17371.2544  -17371.8157       0.5614   482.5
39.5000     -17371.7748  -17371.9762       0.2014   173.1
39.7500     -17371.6017  -17371.8902       0.2885   248.0
40.0000     -17371.3525  -17371.7105       0.3579   307.7
