Time[ps]      Etot[eV]     Epot[eV]     Ekin[eV]    T[K]
0.0000      -17370.0678  -17370.4124       0.3446   296.2
0.2500      -17369.9280  -17370.2046       0.2766   237.7
0.5000      -17369.9920  -17370.2862       0.2943   253.0
0.7500      -17369.8427  -17370.2740       0.4313   370.8
1.0000      -17370.0783  -17370.3043       0.2260   194.3
1.2500      -17370.0754  -17370.2882       0.2128   182.9
1.5000      -17369.7562  -17370.0853       0.3291   282.9
1.7500      -17369.8001  -17370.1295       0.3294   283.2
2.0000      -17369.6869  -17370.0602       0.3733   320.9
2.2500      -17369.5841  -17369.9476       0.3635   312.4
2.5000      -17369.6181  -17369.9905       0.3724   320.1
2.7500      -17369.4652  -17370.0157       0.5505   473.2
3.0000      -17369.3547  -17369.8815       0.5268   452.8
3.2500      -17369.6584  -17369.9081       0.2497   214.6
3.5000      -17369.4847  -17369.8327       0.3480   299.2
3.7500      -17369.6333  -17370.0406       0.4072   350.1
4.0000      -17369.7183  -17369.9613       0.2430   208.8
4.2500      -17369.8150  -17370.0893       0.2743   235.8
4.5000      -17369.4009  -17369.8971       0.4962   426.5
4.7500      -17369.7371  -17369.9560       0.2189   188.2
5.0000      -17369.6669  -17369.9460       0.2791   239.9
5.2500      -17369.5753  -17369.9467       0.3714   319.3
5.5000      -17369.6697  -17370.0905       0.4207   361.7
5.7500      -17369.4335  -17369.9870       0.5535   475.8
6.0000      -17369.6573  -17370.0401       0.3828   329.0
6.2500      -17369.3858  -17369.9150       0.5292   454.9
6.5000      -17369.6063  -17369.7834       0.1772   152.3
6.7500      -17369.4637  -17369.9737       0.5100   438.4
7.0000      -17369.3760  -17369.8099       0.4339   373.0
7.2500      -17369.6335  -17369.9375       0.3040   261.3
7.5000      -17369.4225  -17369.7936       0.3711   319.0
7.7500      -17369.2188  -17369.6969       0.4781   411.0
8.0000      -17369.6881  -17369.9074       0.2193   188.5
8.2500      -17369.6264  -17369.9485       0.3220   276.8
8.5000      -17369.4259  -17369.8423       0.4165   358.0
8.7500      -17369.5113  -17369.9429       0.4317   371.1
9.0000      -17369.6577  -17369.8532       0.1955   168.1
9.2500      -17369.4403  -17369.9151       0.4748   408.1
9.5000      -17369.6660  -17369.9483       0.2823   242.7
9.7500      -17369.6785  -17369.9506       0.2721   233.9
10.0000     -17369.5370  -17370.0270       0.4899   421.1
10.2500     -17369.3777  -17369.9639       0.5862   503.9
10.5000     -17369.4185  -17369.8336       0.4151   356.8
10.7500     -17369.6640  -17369.8220       0.1580   135.8
11.0000     -17369.5344  -17369.8048       0.2704   232.4
11.2500     -17369.7001  -17369.9415       0.2414   207.5
11.5000     -17369.2769  -17369.7363       0.4594   394.9
11.7500     -17369.5565  -17369.8859       0.3294   283.2
12.0000     -17369.5189  -17370.0182       0.4992   429.2
12.2500     -17369.5121  -17369.8095       0.2974   255.7
12.5000     -17369.5233  -17369.8469       0.3235   278.1
12.7500     -17369.5436  -17369.9273       0.3837   329.9
13.0000     -17369.4760  -17369.7583       0.2823   242.7
13.2500     -17369.5064  -17369.9128       0.4063   349.3
13.5000     -17369.4493  -17369.8760       0.4267   366.8
13.7500     -17369.4764  -17369.7765       0.3002   258.0
14.0000     -17369.6932  -17369.9702       0.2770   238.1
14.2500     -17369.5198  -17369.9272       0.4075   350.2
14.5000     -17369.5342  -17369.9231       0.3889   334.3
14.7500     -17369.5153  -17369.8436       0.3283   282.2
15.0000     -17369.4920  -17369.7892       0.2972   255.5
15.2500     -17369.2765  -17369.7763       0.4998   429.6
15.5000     -17369.4617  -17369.8660       0.4043   347.5
15.7500     -17369.3842  -17369.8520       0.4677   402.1
16.0000     -17369.4743  -17369.8506       0.3763   323.5
16.2500     -17369.4788  -17369.8834       0.4046   347.8
16.5000     -17369.3360  -17369.8654       0.5294   455.0
16.7500     -17369.5345  -17369.9447       0.4102   352.6
17.0000     -17369.6732  -17369.9216       0.2484   213.5
17.2500     -17369.6358  -17369.9068       0.2709   232.9
17.5000     -17369.4699  -17369.9914       0.5215   448.3
17.7500     -17369.5010  -17369.9236       0.4226   363.3
18.0000     -17369.5571  -17369.9369       0.3797   326.4
18.2500     -17369.3810  -17369.8485       0.4675   401.9
18.5000     -17369.5032  -17369.9394       0.4362   374.9
18.7500     -17369.7088  -17369.8787       0.1699   146.0
19.0000     -17369.5129  -17369.8579       0.3450   296.6
19.2500     -17369.4774  -17369.9316       0.4542   390.4
19.5000     -17369.3903  -17369.7190       0.3287   282.6
19.7500     -17369.5191  -17369.8422       0.3231   277.7
20.0000     -17369.6083  -17369.9601       0.3518   302.4
20.2500     -17369.5155  -17369.9413       0.4258   366.0
20.5000     -17369.6095  -17369.9196       0.3101   266.5
20.7500     -17369.3219  -17369.7191       0.3972   341.5
21.0000     -17369.4361  -17369.8649       0.4288   368.6
21.2500     -17369.5943  -17369.8563       0.2621   225.3
21.5000     -17369.2596  -17369.5380       0.2784   239.3
21.7500     -17369.6286  -17369.8988       0.2702   232.2
22.0000     -17369.3953  -17369.7369       0.3415   293.6
22.2500     -17369.4658  -17369.6828       0.2170   186.6
22.5000     -17369.4515  -17369.8201       0.3686   316.8
22.7500     -17369.6606  -17370.0048       0.3441   295.8
23.0000     -17369.6252  -17369.9302       0.3050   262.2
23.2500     -17369.4567  -17369.8052       0.3486   299.6
23.5000     -17369.6367  -17369.9250       0.2883   247.8
23.7500     -17369.4981  -17369.8018       0.3037   261.1
24.0000     -17369.3683  -17369.8654       0.4970   427.2
24.2500     -17369.5015  -17369.8433       0.3418   293.8
24.5000     -17369.3458  -17369.6856       0.3399   292.1
24.7500     -17369.2754  -17369.7002       0.4248   365.1
25.0000     -17369.2702  -17369.7665       0.4964   426.7
25.2500     -17369.3952  -17369.7854       0.3902   335.4
25.5000     -17369.3550  -17369.7082       0.3533   303.7
25.7500     -17369.7285  -17369.9924       0.2639   226.9
26.0000     -17369.5598  -17369.9585       0.3987   342.7
26.2500     -17369.6761  -17369.9083       0.2321   199.5
26.5000     -17369.5389  -17369.7995       0.2606   224.0
26.7500     -17369.2048  -17369.7208       0.5160   443.6
27.0000     -17369.2728  -17369.7927       0.5199   446.9
27.2500     -17369.4607  -17369.8452       0.3845   330.5
27.5000     -17369.3481  -17369.7243       0.3762   323.4
27.7500     -17369.5607  -17369.7832       0.2225   191.3
28.0000     -17369.7593  -17370.0017       0.2423   208.3
28.2500     -17369.4002  -17369.8557       0.4555   391.5
28.5000     -17369.4215  -17369.9227       0.5012   430.8
28.7500     -17369.3310  -17369.8528       0.5218   448.5
29.0000     -17369.6099  -17369.8489       0.2389   205.4
29.2500     -17369.4868  -17369.9702       0.4834   415.5
29.5000     -17369.5896  -17370.0080       0.4184   359.7
29.7500     -17369.5246  -17369.8748       0.3502   301.0
30.0000     -17369.5344  -17369.7711       0.2367   203.5
30.2500     -17369.6387  -17369.8878       0.2491   214.1
30.5000     -17369.6138  -17369.8452       0.2315   199.0
30.7500     -17369.4817  -17369.8010       0.3193   274.5
31.0000     -17369.5044  -17369.8944       0.3899   335.2
31.2500     -17369.5665  -17369.8993       0.3328   286.0
31.5000     -17369.6845  -17369.8958       0.2113   181.6
31.7500     -17369.5442  -17369.8479       0.3037   261.1
32.0000     -17369.5979  -17370.0038       0.4059   348.9
32.2500     -17369.6184  -17369.9634       0.3450   296.6
32.5000     -17369.8228  -17370.0310       0.2082   178.9
32.7500     -17369.5523  -17369.9295       0.3773   324.3
33.0000     -17369.5764  -17369.9326       0.3562   306.2
33.2500     -17369.4804  -17369.9464       0.4659   400.5
33.5000     -17369.7070  -17369.9888       0.2819   242.3
33.7500     -17369.6590  -17369.9414       0.2825   242.8
34.0000     -17369.4833  -17369.9743       0.4910   422.1
34.2500     -17369.4766  -17369.8970       0.4204   361.4
34.5000     -17369.6296  -17369.9945       0.3650   313.7
34.7500     -17369.7312  -17369.9840       0.2528   217.3
35.0000     -17369.6213  -17369.9645       0.3433   295.1
35.2500     -17369.6970  -17369.9659       0.2689   231.2
35.5000     -17369.5106  -17369.8405       0.3299   283.6
35.7500     -17369.4701  -17369.9515       0.4814   413.8
36.0000     -17369.5563  -17369.8831       0.3268   280.9
36.2500     -17369.4794  -17369.8310       0.3515   302.2
36.5000     -17369.5431  -17369.8019       0.2587   222.4
36.7500     -17369.5633  -17369.8019       0.2386   205.1
37.0000     -17369.5762  -17369.8677       0.2915   250.6
37.2500     -17369.4838  -17369.8011       0.3173   272.8
37.5000     -17369.5431  -17369.8769       0.3338   286.9
37.7500     -17369.3762  -17369.6993       0.3231   277.8
38.0000     -17369.5466  -17369.9067       0.3601   309.6
38.2500     -17369.5013  -17369.8969       0.3956   340.0
38.5000     -17369.5696  -17369.8279       0.2583   222.0
38.7500     -17369.5241  -17370.0060       0.4818   414.2
39.0000     -17369.3932  -17369.8119       0.4187   359.9
39.2500     -17369.6521  -17369.9043       0.2522   216.8
39.5000     -17369.4654  -17369.8562       0.3908   335.9
39.7500     -17369.5604  -17369.7882       0.2278   195.8
40.0000     -17369.6397  -17369.8946       0.2549   219.1
