Time[ps]      Etot[eV]     Epot[eV]     Ekin[eV]    T[K]
0.0000      -17369.9813  -17370.4124       0.4310   370.5
0.2500      -17370.1126  -17370.3092       0.1966   169.0
0.5000      -17370.1051  -17370.3948       0.2897   249.0
0.7500      -17370.0003  -17370.2904       0.2901   249.4
1.0000      -17370.0546  -17370.3208       0.2663   228.9
1.2500      -17370.0510  -17370.3762       0.3253   279.6
1.5000      -17370.0004  -17370.3356       0.3352   288.1
1.7500      -17369.7900  -17370.1591       0.3691   317.3
2.0000      -17369.9704  -17370.2560       0.2856   245.5
2.2500      -17369.8442  -17370.1356       0.2914   250.5
2.5000      -17369.9843  -17370.1764       0.1921   165.1
2.7500      -17369.8483  -17370.0898       0.2415   207.6
3.0000      -17369.6287  -17370.0383       0.4096   352.1
3.2500      -17369.9339  -17370.1897       0.2558   219.9
3.5000      -17369.8140  -17370.0797       0.2657   228.4
3.7500      -17369.6545  -17370.0340       0.3795   326.2
4.0000      -17369.8568  -17370.1423       0.2855   245.4
4.2500      -17369.8245  -17370.1347       0.3102   266.6
4.5000      -17369.8590  -17370.1287       0.2697   231.8
4.7500      -17369.5787  -17370.0836       0.5049   434.0
5.0000      -17369.6472  -17370.0165       0.3692   317.4
5.2500      -17369.8571  -17370.1290       0.2720   233.8
5.5000      -17369.6472  -17369.9936       0.3463   297.7
5.7500      -17369.8195  -17370.0815       0.2619   225.2
6.0000      -17369.6959  -17370.0242       0.3283   282.2
6.2500      -17369.8858  -17370.1854       0.2997   257.6
6.5000      -17369.6638  -17370.0515       0.3877   333.3
6.7500      -17369.5759  -17370.0579       0.4820   414.3
7.0000      -17369.7275  -17370.0750       0.3475   298.7
7.2500      -17369.7379  -17370.0753       0.3374   290.0
7.5000      -17369.8623  -17370.1228       0.2605   223.9
7.7500      -17369.8486  -17370.1693       0.3208   275.7
8.0000      -17369.7602  -17370.0367       0.2765   237.6
8.2500      -17369.7278  -17370.0954       0.3676   316.0
8.5000      -17369.6969  -17369.9991       0.3021   259.7
8.7500      -17369.7969  -17370.0705       0.2736   235.2
9.0000      -17369.8071  -17370.1329       0.3258   280.1
9.2500      -17369.6636  -17370.0340       0.3704   318.4
9.5000      -17369.9275  -17370.1624       0.2349   201.9
9.7500      -17369.8159  -17370.1085       0.2926   251.5
10.0000     -17369.7908  -17370.0618       0.2710   232.9
10.2500     -17369.5548  -17369.9735       0.4187   360.0
10.5000     -17369.7455  -17370.0706       0.3251   279.4
10.7500     -17369.6778  -17369.9730       0.2952   253.7
11.0000     -17369.6322  -17370.0058       0.3736   321.1
11.2500     -17369.7709  -17370.0940       0.3231   277.8
11.5000     -17369.7334  -17370.0944       0.3610   310.3
11.7500     -17369.8093  -17370.1238       0.3145   270.3
12.0000     -17369.7837  -17370.0757       0.2920   251.0
12.2500     -17369.7945  -17370.1655       0.3711   319.0
12.5000     -17369.5956  -17370.0490       0.4534   389.7
12.7500     -17369.8471  -17370.1360       0.2889   248.3
13.0000     -17369.6314  -17370.1102       0.4787   411.5
13.2500     -17369.6462  -17370.0123       0.3661   314.7
13.5000     -17369.7083  -17369.9778       0.2695   231.7
13.7500     -17369.6951  -17370.0820       0.3869   332.6
14.0000     -17369.8347  -17370.1129       0.2782   239.1
14.2500     -17369.5482  -17369.8834       0.3352   288.2
14.5000     -17369.7932  -17370.0469       0.2537   218.1
14.7500     -17369.7081  -17370.0143       0.3062   263.2
15.0000     -17369.7293  -17370.0271       0.2978   256.0
15.2500     -17369.4787  -17370.0262       0.5475   470.6
15.5000     -17369.6974  -17370.1089       0.4115   353.7
15.7500     -17369.6266  -17369.9857       0.3592   308.7
16.0000     -17369.5833  -17370.0468       0.4635   398.4
16.2500     -17369.8788  -17370.0744       0.1956   168.1
16.5000     -17369.6868  -17370.0046       0.3178   273.2
16.7500     -17369.8216  -17370.0286       0.2070   178.0
17.0000     -17369.4640  -17369.9321       0.4681   402.4
17.2500     -17369.4581  -17370.0967       0.6385   548.9
17.5000     -17369.6376  -17370.0257       0.3881   333.6
17.7500     -17369.6690  -17369.8885       0.2195   188.7
18.0000     -17369.8641  -17370.1117       0.2476   212.8
18.2500     -17369.8158  -17370.2013       0.3855   331.4
18.5000     -17369.4659  -17369.9742       0.5083   436.9
18.7500     -17369.6455  -17370.0805       0.4350   373.9
19.0000     -17369.8528  -17370.1453       0.2925   251.4
19.2500     -17369.6210  -17370.0099       0.3889   334.3
19.5000     -17369.6616  -17369.9701       0.3085   265.2
19.7500     -17369.9069  -17370.0846       0.1776   152.7
20.0000     -17369.7295  -17370.0190       0.2894   248.8
20.2500     -17369.6952  -17370.1394       0.4443   381.9
20.5000     -17369.8055  -17370.0885       0.2830   243.2
20.7500     -17369.6893  -17370.0177       0.3284   282.3
21.0000     -17369.8877  -17370.1667       0.2789   239.8
21.2500     -17369.4057  -17369.9072       0.5015   431.1
21.5000     -17369.5390  -17369.9831       0.4441   381.8
21.7500     -17369.5998  -17369.9717       0.3719   319.7
22.0000     -17369.6710  -17370.0622       0.3912   336.3
22.2500     -17369.6630  -17370.0319       0.3690   317.2
22.5000     -17369.6675  -17370.1001       0.4326   371.9
22.7500     -17369.7104  -17369.9985       0.2881   247.7
23.0000     -17370.0185  -17370.1210       0.1025    88.1
23.2500     -17369.7962  -17370.0768       0.2807   241.3
23.5000     -17369.8485  -17370.0584       0.2100   180.5
23.7500     -17369.6948  -17370.0584       0.3636   312.5
24.0000     -17369.6749  -17370.0587       0.3838   329.9
24.2500     -17369.5092  -17370.0597       0.5505   473.2
24.5000     -17369.8696  -17370.0858       0.2162   185.8
24.7500     -17369.7091  -17370.1195       0.4104   352.8
25.0000     -17369.7431  -17370.1576       0.4145   356.3
25.2500     -17369.8026  -17370.0121       0.2095   180.1
25.5000     -17369.8260  -17370.1139       0.2879   247.5
25.7500     -17369.7247  -17370.0726       0.3479   299.0
26.0000     -17369.8344  -17370.1390       0.3046   261.8
26.2500     -17369.7576  -17370.0974       0.3399   292.1
26.5000     -17369.8946  -17370.1636       0.2690   231.2
26.7500     -17369.6433  -17370.1419       0.4986   428.6
27.0000     -17369.8683  -17370.1367       0.2684   230.7
27.2500     -17369.8415  -17370.1231       0.2817   242.1
27.5000     -17369.9350  -17370.2510       0.3160   271.7
27.7500     -17369.7221  -17370.0215       0.2994   257.4
28.0000     -17369.7589  -17370.1113       0.3524   302.9
28.2500     -17369.7266  -17370.0260       0.2994   257.4
28.5000     -17369.8909  -17370.0381       0.1472   126.5
28.7500     -17369.7815  -17370.2232       0.4417   379.7
29.0000     -17369.7537  -17370.0651       0.3114   267.7
29.2500     -17369.6945  -17370.0628       0.3683   316.6
29.5000     -17369.6138  -17370.0554       0.4416   379.6
29.7500     -17369.8000  -17370.0450       0.2450   210.6
30.0000     -17369.7359  -17370.0495       0.3136   269.6
30.2500     -17369.7349  -17370.0217       0.2868   246.5
30.5000     -17369.7426  -17370.0567       0.3141   270.0
30.7500     -17369.6400  -17369.9315       0.2914   250.5
31.0000     -17369.5190  -17369.9960       0.4771   410.1
31.2500     -17369.6724  -17369.9856       0.3132   269.2
31.5000     -17369.7033  -17370.0500       0.3467   298.0
31.7500     -17369.7671  -17370.0906       0.3235   278.0
32.0000     -17369.5090  -17369.9524       0.4434   381.1
32.2500     -17369.5210  -17370.0749       0.5540   476.2
32.5000     -17369.7956  -17370.0350       0.2394   205.8
32.7500     -17369.7724  -17370.1065       0.3341   287.2
33.0000     -17369.9186  -17370.1478       0.2292   197.0
33.2500     -17369.6404  -17370.0267       0.3863   332.0
33.5000     -17369.5385  -17370.0543       0.5157   443.3
33.7500     -17369.5886  -17370.1456       0.5571   478.8
34.0000     -17369.5946  -17370.1843       0.5897   506.9
34.2500     -17369.4622  -17369.9374       0.4752   408.5
34.5000     -17369.7799  -17370.1324       0.3525   303.0
34.7500     -17369.9402  -17370.1691       0.2289   196.8
35.0000     -17369.5698  -17370.0157       0.4459   383.3
35.2500     -17369.6450  -17370.0068       0.3617   310.9
35.5000     -17369.5884  -17369.9973       0.4090   351.5
35.7500     -17369.6700  -17370.0382       0.3683   316.6
36.0000     -17369.7467  -17370.0974       0.3507   301.5
36.2500     -17369.7432  -17369.9652       0.2220   190.9
36.5000     -17369.6478  -17370.0960       0.4482   385.2
36.7500     -17369.7805  -17370.1105       0.3301   283.7
37.0000     -17369.4901  -17370.1018       0.6117   525.8
37.2500     -17369.8389  -17370.1828       0.3439   295.6
37.5000     -17369.7598  -17370.0899       0.3301   283.8
37.7500     -17369.8757  -17370.1660       0.2903   249.5
38.0000     -17369.4614  -17370.0160       0.5546   476.7
38.2500     -17369.8549  -17370.1057       0.2508   215.6
38.5000     -17369.6513  -17369.9943       0.3431   294.9
38.7500     -17369.6947  -17370.0166       0.3220   276.8
39.0000     -17369.6789  -17370.0682       0.3893   334.7
39.2500     -17369.8728  -17370.1541       0.2813   241.8
39.5000     -17369.6876  -17370.0484       0.3608   310.1
39.7500     -17369.7913  -17370.0797       0.2883   247.8
40.0000     -17369.6277  -17369.9485       0.3208   275.8
