Time[ps]      Etot[eV]     Epot[eV]     Ekin[eV]    T[K]
0.0000      -17370.1577  -17370.4124       0.2547   218.9
0.2500      -17369.8453  -17370.2292       0.3839   330.0
0.5000      -17369.7444  -17370.1689       0.4246   364.9
0.7500      -17369.8442  -17370.2565       0.4123   354.4
1.0000      -17369.8482  -17370.1364       0.2882   247.7
1.2500      -17369.6560  -17370.0491       0.3931   337.9
1.5000      -17369.4024  -17369.9233       0.5208   447.7
1.7500      -17369.6098  -17369.9500       0.3401   292.4
2.0000      -17369.6554  -17370.1502       0.4948   425.3
2.2500      -17369.9211  -17370.2935       0.3723   320.0
2.5000      -17369.9028  -17370.1884       0.2857   245.6
2.7500      -17369.7479  -17370.2209       0.4731   406.7
3.0000      -17369.7888  -17370.2022       0.4134   355.3
3.2500      -17370.0690  -17370.3041       0.2350   202.0
3.5000      -17370.0637  -17370.3763       0.3126   268.7
3.7500      -17369.6648  -17370.2735       0.6087   523.2
4.0000      -17369.8754  -17370.2928       0.4174   358.8
4.2500      -17370.0542  -17370.2676       0.2134   183.4
4.5000      -17370.0292  -17370.3282       0.2990   257.0
4.7500      -17369.9389  -17370.2818       0.3428   294.7
5.0000      -17369.9316  -17370.3232       0.3916   336.6
5.2500      -17369.9616  -17370.3493       0.3878   333.3
5.5000      -17369.9650  -17370.3967       0.4316   371.0
5.7500      -17369.7107  -17370.1451       0.4345   373.5
6.0000      -17369.9135  -17370.3698       0.4563   392.3
6.2500      -17369.7497  -17370.3273       0.5776   496.5
6.5000      -17369.9223  -17370.2129       0.2907   249.8
6.7500      -17370.0300  -17370.2960       0.2660   228.7
7.0000      -17369.6486  -17370.0566       0.4080   350.7
7.2500      -17369.9143  -17370.2973       0.3830   329.2
7.5000      -17369.9253  -17370.2034       0.2781   239.1
7.7500      -17370.0957  -17370.3235       0.2278   195.8
8.0000      -17369.9400  -17370.3107       0.3707   318.7
8.2500      -17369.9413  -17370.3061       0.3649   313.6
8.5000      -17369.8893  -17370.1703       0.2810   241.6
8.7500      -17369.8351  -17370.1287       0.2935   252.3
9.0000      -17369.7923  -17370.2501       0.4578   393.6
9.2500      -17369.9683  -17370.2282       0.2599   223.4
9.5000      -17370.0095  -17370.3272       0.3177   273.1
9.7500      -17369.6989  -17370.1716       0.4727   406.3
10.0000     -17369.9988  -17370.3397       0.3409   293.1
10.2500     -17370.0239  -17370.3233       0.2994   257.4
10.5000     -17370.0543  -17370.2761       0.2218   190.6
10.7500     -17369.8541  -17370.1797       0.3256   279.9
11.0000     -17370.1810  -17370.3330       0.1520   130.7
11.2500     -17369.9702  -17370.1599       0.1897   163.0
11.5000     -17369.8895  -17370.2673       0.3778   324.8
11.7500     -17369.8658  -17370.1873       0.3215   276.4
12.0000     -17369.6955  -17370.1367       0.4412   379.3
12.2500     -17369.9230  -17370.2957       0.3727   320.4
12.5000     -17369.7366  -17370.1802       0.4436   381.3
12.7500     -17369.8221  -17370.2237       0.4016   345.2
13.0000     -17369.8654  -17370.1997       0.3343   287.3
13.2500     -17369.8416  -17370.1389       0.2973   255.6
13.5000     -17370.0695  -17370.2486       0.1791   153.9
13.7500     -17370.0184  -17370.2896       0.2713   233.2
14.0000     -17369.8819  -17370.3157       0.4338   372.9
14.2500     -17369.9461  -17370.3868       0.4408   378.9
14.5000     -17369.8037  -17370.1140       0.3103   266.7
14.7500     -17369.9492  -17370.2744       0.3252   279.5
15.0000     -17369.8687  -17370.2336       0.3649   313.6
15.2500     -17370.0483  -17370.2782       0.2300   197.7
15.5000     -17369.9850  -17370.3174       0.3323   285.7
15.7500     -17369.7928  -17370.0561       0.2633   226.3
16.0000     -17369.8552  -17370.2007       0.3456   297.1
16.2500     -17369.7814  -17370.2649       0.4835   415.6
16.5000     -17369.8522  -17370.1454       0.2932   252.0
16.7500     -17369.7701  -17370.1107       0.3406   292.8
17.0000     -17369.7922  -17370.1317       0.3395   291.9
17.2500     -17369.8617  -17370.3443       0.4826   414.8
17.5000     -17369.8477  -17370.2923       0.4446   382.2
17.7500     -17369.7944  -17370.1920       0.3977   341.8
18.0000     -17369.8717  -17370.1547       0.2830   243.3
18.2500     -17369.9617  -17370.2856       0.3239   278.4
18.5000     -17369.8972  -17370.1789       0.2817   242.1
18.7500     -17369.8185  -17370.2242       0.4057   348.7
19.0000     -17370.0165  -17370.2869       0.2704   232.5
19.2500     -17369.7973  -17370.1878       0.3905   335.7
19.5000     -17369.7841  -17370.2007       0.4167   358.2
19.7500     -17370.1017  -17370.3392       0.2374   204.1
20.0000     -17369.9982  -17370.2799       0.2816   242.1
20.2500     -17369.9612  -17370.2642       0.3030   260.4
20.5000     -17369.7119  -17370.2270       0.5151   442.8
20.7500     -17369.6842  -17370.1560       0.4718   405.6
21.0000     -17369.8551  -17370.2000       0.3449   296.5
21.2500     -17369.8093  -17370.1617       0.3524   302.9
21.5000     -17369.9245  -17370.2875       0.3630   312.0
21.7500     -17370.0920  -17370.3299       0.2379   204.5
22.0000     -17370.1511  -17370.3343       0.1833   157.5
22.2500     -17370.0302  -17370.2780       0.2478   213.0
22.5000     -17370.1537  -17370.3296       0.1759   151.2
22.7500     -17369.9863  -17370.2276       0.2413   207.4
23.0000     -17369.8347  -17370.3689       0.5342   459.2
23.2500     -17369.8471  -17370.1690       0.3219   276.7
23.5000     -17369.8974  -17370.2548       0.3574   307.2
23.7500     -17369.8058  -17370.2475       0.4417   379.7
24.0000     -17370.1826  -17370.3686       0.1861   159.9
24.2500     -17370.0076  -17370.2069       0.1994   171.4
24.5000     -17369.6180  -17370.2058       0.5878   505.3
24.7500     -17369.7828  -17370.2197       0.4369   375.6
25.0000     -17369.9449  -17370.3821       0.4372   375.8
25.2500     -17369.9811  -17370.3474       0.3663   314.8
25.5000     -17369.8523  -17370.1948       0.3425   294.4
25.7500     -17369.9035  -17370.2561       0.3526   303.1
26.0000     -17369.6435  -17370.1089       0.4655   400.1
26.2500     -17369.8945  -17370.2295       0.3349   287.9
26.5000     -17370.0079  -17370.2984       0.2905   249.7
26.7500     -17369.9046  -17370.3604       0.4558   391.8
27.0000     -17369.7799  -17370.3250       0.5451   468.6
27.2500     -17369.8620  -17370.2396       0.3776   324.5
27.5000     -17370.0225  -17370.3029       0.2804   241.0
27.7500     -17369.9499  -17370.3812       0.4312   370.7
28.0000     -17370.0582  -17370.2671       0.2089   179.5
28.2500     -17369.6859  -17370.0723       0.3864   332.2
28.5000     -17369.6833  -17370.1400       0.4567   392.6
28.7500     -17369.9754  -17370.3106       0.3352   288.2
29.0000     -17370.0714  -17370.3963       0.3249   279.3
29.2500     -17370.0451  -17370.3350       0.2899   249.2
29.5000     -17369.7859  -17370.2072       0.4213   362.1
29.7500     -17369.8081  -17370.2542       0.4461   383.4
30.0000     -17369.9484  -17370.2621       0.3137   269.7
30.2500     -17369.8953  -17370.2955       0.4001   344.0
30.5000     -17369.7532  -17370.1703       0.4171   358.5
30.7500     -17370.0618  -17370.3598       0.2980   256.1
31.0000     -17370.0354  -17370.3982       0.3628   311.8
31.2500     -17370.1584  -17370.3926       0.2342   201.3
31.5000     -17370.0731  -17370.2940       0.2209   189.9
31.7500     -17369.8459  -17370.2190       0.3731   320.7
32.0000     -17369.9130  -17370.3246       0.4116   353.8
32.2500     -17369.8502  -17370.2951       0.4449   382.4
32.5000     -17369.9280  -17370.3860       0.4580   393.7
32.7500     -17369.7993  -17370.2607       0.4614   396.6
33.0000     -17369.7936  -17370.1817       0.3881   333.6
33.2500     -17369.9150  -17370.1908       0.2758   237.1
33.5000     -17369.9913  -17370.1917       0.2004   172.2
33.7500     -17370.0293  -17370.3606       0.3313   284.8
34.0000     -17369.8957  -17370.2048       0.3091   265.7
34.2500     -17369.9721  -17370.2024       0.2303   198.0
34.5000     -17370.0294  -17370.3529       0.3234   278.0
34.7500     -17370.0240  -17370.3147       0.2907   249.9
35.0000     -17369.8240  -17370.2144       0.3904   335.6
35.2500     -17370.0767  -17370.3518       0.2751   236.4
35.5000     -17369.8091  -17370.2126       0.4035   346.8
35.7500     -17370.0860  -17370.3675       0.2815   242.0
36.0000     -17370.0325  -17370.2431       0.2106   181.0
36.2500     -17369.8828  -17370.1041       0.2213   190.2
36.5000     -17369.9138  -17370.2619       0.3481   299.3
36.7500     -17369.6670  -17370.1811       0.5141   441.9
37.0000     -17369.5931  -17370.1985       0.6054   520.4
37.2500     -17369.6905  -17370.2975       0.6069   521.7
37.5000     -17369.9169  -17370.2443       0.3274   281.4
37.7500     -17369.8804  -17370.2882       0.4078   350.5
38.0000     -17369.8124  -17370.2173       0.4049   348.1
38.2500     -17369.8718  -17370.2168       0.3450   296.6
38.5000     -17369.9899  -17370.1715       0.1816   156.1
38.7500     -17369.9469  -17370.2663       0.3194   274.6
39.0000     -17370.0918  -17370.2730       0.1812   155.8
39.2500     -17369.9331  -17370.2410       0.3080   264.7
39.5000     -17369.8747  -17370.3076       0.4330   372.2
39.7500     -17370.0978  -17370.3847       0.2869   246.6
40.0000     -17369.8888  -17370.1933       0.3045   261.7
