Time[ps]      Etot[eV]     Epot[eV]     Ekin[eV]    T[K]
0.0000      -17370.0053  -17370.4124       0.4071   349.9
0.2500      -17369.9868  -17370.2932       0.3064   263.4
0.5000      -17369.8673  -17370.2641       0.3968   341.1
0.7500      -17369.8705  -17370.3075       0.4370   375.6
1.0000      -17369.8454  -17370.1847       0.3393   291.7
1.2500      -17369.7477  -17370.1051       0.3574   307.3
1.5000      -17369.8868  -17370.2210       0.3342   287.2
1.7500      -17370.3202  -17370.7571       0.4369   375.6
2.0000      -17370.9517  -17371.3989       0.4472   384.4
2.2500      -17371.3143  -17371.7002       0.3859   331.7
2.5000      -17371.2227  -17371.7083       0.4856   417.4
2.7500      -17371.4405  -17371.6794       0.2389   205.4
3.0000      -17371.2731  -17371.6472       0.3740   321.5
3.2500      -17371.4173  -17371.8100       0.3927   337.5
3.5000      -17371.2674  -17371.6602       0.3928   337.7
3.7500      -17371.5469  -17371.7438       0.1968   169.2
4.0000      -17371.3186  -17371.6824       0.3638   312.7
4.2500      -17371.4921  -17371.7867       0.2946   253.2
4.5000      -17371.3543  -17371.7052       0.3509   301.7
4.7500      -17371.4630  -17371.7173       0.2542   218.5
5.0000      -17371.2825  -17371.6761       0.3935   338.3
5.2500      -17371.3409  -17371.7187       0.3778   324.7
5.5000      -17371.2467  -17371.6841       0.4373   375.9
5.7500      -17371.1516  -17371.6587       0.5071   435.9
6.0000      -17371.3008  -17371.7180       0.4172   358.6
6.2500      -17371.4519  -17371.7907       0.3388   291.2
6.5000      -17371.3501  -17371.7023       0.3522   302.8
6.7500      -17371.4547  -17371.6869       0.2321   199.5
7.0000      -17371.3579  -17371.6831       0.3251   279.5
7.2500      -17371.1982  -17371.6259       0.4277   367.6
7.5000      -17371.4916  -17371.8166       0.3249   279.3
7.7500      -17371.2912  -17371.6873       0.3961   340.5
8.0000      -17371.3437  -17371.8173       0.4736   407.1
8.2500      -17371.2325  -17371.6282       0.3956   340.1
8.5000      -17371.5334  -17371.7040       0.1706   146.6
8.7500      -17371.3252  -17371.6403       0.3152   270.9
9.0000      -17371.3691  -17371.7357       0.3666   315.2
9.2500      -17371.3160  -17371.7766       0.4606   395.9
9.5000      -17371.3759  -17371.7493       0.3734   321.0
9.7500      -17371.5930  -17371.8349       0.2419   207.9
10.0000     -17371.1428  -17371.7308       0.5880   505.4
10.2500     -17371.1703  -17371.7719       0.6015   517.1
10.5000     -17371.4594  -17371.7351       0.2757   237.0
10.7500     -17371.4735  -17371.7681       0.2945   253.2
11.0000     -17371.4473  -17371.6822       0.2349   201.9
11.2500     -17371.3256  -17371.7212       0.3956   340.0
11.5000     -17371.4670  -17371.7800       0.3130   269.1
11.7500     -17371.5742  -17371.8428       0.2687   231.0
12.0000     -17371.4628  -17371.7419       0.2791   239.9
12.2500     -17371.6125  -17371.8051       0.1926   165.5
12.5000     -17371.3939  -17371.7273       0.3334   286.6
12.7500     -17371.5142  -17371.7726       0.2585   222.2
13.0000     -17371.4437  -17371.7282       0.2845   244.6
13.2500     -17371.4427  -17371.7877       0.3450   296.6
13.5000     -17371.3938  -17371.7904       0.3966   340.9
13.7500     -17371.4066  -17371.7711       0.3645   313.3
14.0000     -17371.3392  -17371.6196       0.2804   241.0
14.2500     -17371.2845  -17371.6887       0.4043   347.5
14.5000     -17371.3054  -17371.7180       0.4126   354.7
14.7500     -17371.3891  -17371.6935       0.3044   261.7
15.0000     -17371.3193  -17371.7321       0.4128   354.8
15.2500     -17371.5327  -17371.7510       0.2182   187.6
15.5000     -17371.6209  -17371.8404       0.2196   188.8
15.7500     -17371.2738  -17371.7327       0.4589   394.5
16.0000     -17371.1768  -17371.6736       0.4968   427.1
16.2500     -17371.4666  -17371.7599       0.2933   252.1
16.5000     -17371.4269  -17371.5990       0.1721   148.0
16.7500     -17371.4192  -17371.6659       0.2467   212.1
17.0000     -17371.2059  -17371.5763       0.3704   318.4
17.2500     -17371.4866  -17371.8120       0.3254   279.7
17.5000     -17371.3513  -17371.8445       0.4932   424.0
17.7500     -17371.0665  -17371.7284       0.6619   568.9
18.0000     -17371.1359  -17371.7670       0.6311   542.5
18.2500     -17371.3766  -17371.6338       0.2572   221.1
18.5000     -17371.4981  -17371.8306       0.3324   285.8
18.7500     -17371.6147  -17371.8411       0.2263   194.6
19.0000     -17371.5840  -17371.8157       0.2317   199.2
19.2500     -17371.3341  -17371.7050       0.3709   318.8
19.5000     -17371.2524  -17371.6317       0.3793   326.1
19.7500     -17371.4911  -17371.7969       0.3057   262.8
20.0000     -17371.4016  -17371.7010       0.2994   257.4
20.2500     -17371.3173  -17371.6193       0.3020   259.6
20.5000     -17371.1218  -17371.5186       0.3967   341.0
20.7500     -17371.3959  -17371.7277       0.3318   285.2
21.0000     -17371.4981  -17371.7646       0.2665   229.1
21.2500     -17371.1661  -17371.5915       0.4254   365.7
21.5000     -17371.5146  -17371.7674       0.2528   217.3
21.7500     -17371.3653  -17371.7024       0.3371   289.8
22.0000     -17371.3596  -17371.6844       0.3249   279.3
22.2500     -17371.2645  -17371.6353       0.3708   318.8
22.5000     -17371.3215  -17371.6412       0.3197   274.9
22.7500     -17371.2666  -17371.6749       0.4083   351.0
23.0000     -17371.5350  -17371.8325       0.2975   255.7
23.2500     -17371.2763  -17371.6357       0.3594   308.9
23.5000     -17371.4537  -17371.6920       0.2383   204.8
23.7500     -17371.1607  -17371.6420       0.4813   413.7
24.0000     -17371.4396  -17371.7149       0.2753   236.7
24.2500     -17371.3309  -17371.6314       0.3005   258.3
24.5000     -17371.3155  -17371.7658       0.4503   387.1
24.7500     -17371.4861  -17371.6947       0.2085   179.3
25.0000     -17370.9688  -17371.2833       0.3145   270.4
25.2500     -17371.2185  -17371.5993       0.3807   327.3
25.5000     -17371.2765  -17371.7305       0.4540   390.3
25.7500     -17371.4185  -17371.7293       0.3108   267.2
26.0000     -17371.5152  -17371.7469       0.2317   199.2
26.2500     -17371.3825  -17371.6863       0.3038   261.2
26.5000     -17371.2165  -17371.6227       0.4063   349.2
26.7500     -17371.2926  -17371.6788       0.3861   331.9
27.0000     -17371.3615  -17371.7408       0.3794   326.1
27.2500     -17371.2508  -17371.6583       0.4075   350.3
27.5000     -17371.2852  -17371.7151       0.4300   369.6
27.7500     -17371.4444  -17371.7196       0.2752   236.5
28.0000     -17371.3026  -17371.6790       0.3764   323.6
28.2500     -17371.1468  -17371.6031       0.4564   392.3
28.5000     -17371.5244  -17371.8328       0.3084   265.1
28.7500     -17371.4016  -17371.6743       0.2726   234.4
29.0000     -17371.2785  -17371.5621       0.2836   243.8
29.2500     -17371.4773  -17371.7271       0.2498   214.7
29.5000     -17371.3133  -17371.7149       0.4015   345.2
29.7500     -17371.4170  -17371.7111       0.2940   252.8
30.0000     -17371.2969  -17371.6504       0.3535   303.8
30.2500     -17371.4874  -17371.7051       0.2178   187.2
30.5000     -17371.2555  -17371.7345       0.4790   411.7
30.7500     -17371.2020  -17371.6600       0.4581   393.8
31.0000     -17371.5585  -17371.7632       0.2047   175.9
31.2500     -17371.3251  -17371.6169       0.2918   250.9
31.5000     -17371.3093  -17371.6882       0.3788   325.6
31.7500     -17371.1987  -17371.5899       0.3912   336.3
32.0000     -17371.5318  -17371.7884       0.2566   220.6
32.2500     -17371.1833  -17371.6795       0.4962   426.6
32.5000     -17371.4566  -17371.6686       0.2120   182.2
32.7500     -17371.5306  -17371.7142       0.1836   157.8
33.0000     -17371.3056  -17371.6885       0.3830   329.2
33.2500     -17371.2060  -17371.6992       0.4932   424.0
33.5000     -17371.2516  -17371.6082       0.3566   306.5
33.7500     -17371.3629  -17371.6469       0.2841   244.2
34.0000     -17371.4588  -17371.7182       0.2594   223.0
34.2500     -17371.3180  -17371.6539       0.3359   288.8
34.5000     -17371.3704  -17371.6913       0.3209   275.8
34.7500     -17371.3304  -17371.7936       0.4632   398.2
35.0000     -17371.3173  -17371.6154       0.2981   256.2
35.2500     -17371.3216  -17371.6296       0.3080   264.8
35.5000     -17371.3593  -17371.5927       0.2334   200.6
35.7500     -17371.4533  -17371.7498       0.2965   254.9
36.0000     -17371.3574  -17371.7238       0.3664   315.0
36.2500     -17371.3166  -17371.6477       0.3311   284.6
36.5000     -17371.5165  -17371.8427       0.3262   280.4
36.7500     -17371.3520  -17371.8254       0.4734   406.9
37.0000     -17371.2943  -17371.7161       0.4217   362.5
37.2500     -17371.3078  -17371.6822       0.3743   321.8
37.5000     -17371.2891  -17371.7008       0.4116   353.8
37.7500     -17371.2587  -17371.7526       0.4939   424.6
38.0000     -17371.1534  -17371.6374       0.4840   416.1
38.2500     -17371.4850  -17371.7658       0.2808   241.4
38.5000     -17371.3343  -17371.6982       0.3639   312.8
38.7500     -17371.2328  -17371.6359       0.4031   346.5
39.0000     -17371.0616  -17371.5886       0.5270   453.0
39.2500     -17371.0907  -17371.5512       0.4605   395.8
39.5000     -17371.1995  -17371.6750       0.4754   408.7
39.7500     -17371.4247  -17371.7423       0.3175   272.9
40.0000     -17371.2829  -17371.6928       0.4099   352.3
