Time[ps]      Etot[eV]     Epot[eV]     Ekin[eV]    T[K]
0.0000      -17370.1258  -17370.4124       0.2866   246.3
0.2500      -17370.0682  -17370.2682       0.2000   171.9
0.5000      -17369.9856  -17370.2852       0.2996   257.5
0.7500      -17370.0087  -17370.3090       0.3003   258.1
1.0000      -17369.7612  -17370.1963       0.4350   374.0
1.2500      -17369.7194  -17370.1145       0.3951   339.6
1.5000      -17369.6781  -17370.0327       0.3546   304.8
1.7500      -17369.5865  -17369.9251       0.3386   291.0
2.0000      -17369.5470  -17369.9390       0.3920   336.9
2.2500      -17369.6784  -17370.0259       0.3474   298.6
2.5000      -17369.5875  -17370.0694       0.4819   414.2
2.7500      -17369.8853  -17370.1009       0.2157   185.4
3.0000      -17369.9527  -17370.1649       0.2123   182.5
3.2500      -17369.8005  -17370.1282       0.3277   281.7
3.5000      -17369.7421  -17370.1992       0.4571   392.9
3.7500      -17369.8618  -17370.1755       0.3137   269.7
4.0000      -17369.7908  -17370.2600       0.4692   403.3
4.2500      -17369.9119  -17370.1803       0.2684   230.7
4.5000      -17370.0476  -17370.2273       0.1797   154.5
4.7500      -17369.7694  -17370.1128       0.3434   295.2
5.0000      -17369.6880  -17370.0613       0.3733   320.9
5.2500      -17369.8383  -17370.2459       0.4076   350.3
5.5000      -17369.8233  -17370.0460       0.2226   191.4
5.7500      -17369.8892  -17370.0845       0.1953   167.9
6.0000      -17369.6691  -17370.0436       0.3745   321.9
6.2500      -17369.7955  -17370.2358       0.4403   378.5
6.5000      -17369.8379  -17370.1440       0.3061   263.1
6.7500      -17370.0592  -17370.2352       0.1760   151.3
7.0000      -17370.0424  -17370.2640       0.2216   190.5
7.2500      -17370.0087  -17370.2067       0.1980   170.2
7.5000      -17369.7951  -17370.1394       0.3443   295.9
7.7500      -17369.9089  -17370.1359       0.2270   195.2
8.0000      -17369.6954  -17370.1966       0.5012   430.8
8.2500      -17369.7689  -17370.1929       0.4240   364.5
8.5000      -17369.5895  -17370.2358       0.6463   555.6
8.7500      -17369.7569  -17370.1241       0.3672   315.7
9.0000      -17369.9510  -17370.2679       0.3170   272.4
9.2500      -17369.8004  -17370.2055       0.4051   348.2
9.5000      -17370.0586  -17370.2575       0.1989   171.0
9.7500      -17369.8378  -17370.1963       0.3585   308.2
10.0000     -17369.9535  -17370.1606       0.2071   178.0
10.2500     -17369.5487  -17369.9541       0.4054   348.5
10.5000     -17369.6812  -17370.1487       0.4675   401.9
10.7500     -17370.0160  -17370.2019       0.1859   159.8
11.0000     -17369.7220  -17370.0156       0.2936   252.4
11.2500     -17369.8541  -17370.1617       0.3076   264.4
11.5000     -17369.5617  -17369.9059       0.3441   295.8
11.7500     -17369.8882  -17370.1479       0.2597   223.3
12.0000     -17369.7609  -17370.1431       0.3822   328.5
12.2500     -17369.6705  -17370.0896       0.4191   360.2
12.5000     -17369.7075  -17370.0694       0.3619   311.1
12.7500     -17370.0602  -17370.2963       0.2361   202.9
13.0000     -17369.7752  -17370.1920       0.4168   358.3
13.2500     -17369.9654  -17370.1508       0.1854   159.4
13.5000     -17369.7180  -17370.0570       0.3390   291.4
13.7500     -17369.9013  -17370.1087       0.2075   178.3
14.0000     -17370.0252  -17370.3086       0.2834   243.6
14.2500     -17369.7883  -17370.1605       0.3721   319.9
14.5000     -17369.5929  -17370.0634       0.4704   404.4
14.7500     -17369.7423  -17370.2155       0.4731   406.7
15.0000     -17369.7046  -17370.1888       0.4843   416.3
15.2500     -17369.8344  -17370.1802       0.3458   297.2
15.5000     -17369.9371  -17370.2356       0.2985   256.6
15.7500     -17369.9318  -17370.1630       0.2312   198.8
16.0000     -17369.9515  -17370.3160       0.3645   313.3
16.2500     -17369.8572  -17370.2426       0.3854   331.3
16.5000     -17370.0174  -17370.2474       0.2300   197.7
16.7500     -17369.8483  -17370.2278       0.3796   326.3
17.0000     -17369.6022  -17370.1703       0.5681   488.4
17.2500     -17369.5806  -17370.2355       0.6549   562.9
17.5000     -17369.9578  -17370.2694       0.3116   267.8
17.7500     -17369.8814  -17370.1487       0.2673   229.8
18.0000     -17369.9570  -17370.1910       0.2341   201.2
18.2500     -17369.8556  -17370.2441       0.3885   333.9
18.5000     -17369.8483  -17370.3315       0.4832   415.4
18.7500     -17369.9938  -17370.2339       0.2401   206.3
19.0000     -17370.0800  -17370.3181       0.2381   204.7
19.2500     -17369.9377  -17370.2714       0.3337   286.8
19.5000     -17369.9423  -17370.2341       0.2918   250.8
19.7500     -17369.9920  -17370.3327       0.3407   292.8
20.0000     -17370.0420  -17370.3269       0.2849   244.9
20.2500     -17370.0603  -17370.2992       0.2389   205.4
20.5000     -17369.7728  -17370.1693       0.3966   340.9
20.7500     -17369.7237  -17370.1838       0.4601   395.5
21.0000     -17370.0556  -17370.2870       0.2315   199.0
21.2500     -17370.0310  -17370.2404       0.2094   180.0
21.5000     -17369.7545  -17370.1664       0.4119   354.1
21.7500     -17369.7749  -17370.2007       0.4257   366.0
22.0000     -17369.6710  -17370.2156       0.5445   468.1
22.2500     -17369.9310  -17370.1719       0.2409   207.0
22.5000     -17369.9248  -17370.2019       0.2771   238.2
22.7500     -17369.8028  -17370.2322       0.4294   369.1
23.0000     -17369.9192  -17370.1703       0.2511   215.9
23.2500     -17369.9321  -17370.2579       0.3257   280.0
23.5000     -17369.7639  -17370.2395       0.4757   408.9
23.7500     -17369.8463  -17370.1571       0.3108   267.2
24.0000     -17370.0413  -17370.2420       0.2007   172.5
24.2500     -17369.9216  -17370.2092       0.2876   247.2
24.5000     -17370.0416  -17370.3158       0.2743   235.8
24.7500     -17369.6753  -17370.1669       0.4916   422.6
25.0000     -17369.8844  -17370.2657       0.3812   327.7
25.2500     -17369.8250  -17370.2564       0.4315   370.9
25.5000     -17369.8990  -17370.1202       0.2213   190.2
25.7500     -17369.8057  -17370.1730       0.3673   315.8
26.0000     -17369.5066  -17369.9268       0.4202   361.2
26.2500     -17369.8417  -17370.1945       0.3527   303.2
26.5000     -17369.8769  -17370.2564       0.3795   326.2
26.7500     -17369.6223  -17369.9942       0.3719   319.7
27.0000     -17369.8929  -17370.1375       0.2446   210.2
27.2500     -17369.7219  -17370.2284       0.5065   435.4
27.5000     -17369.7365  -17370.1912       0.4546   390.8
27.7500     -17370.0531  -17370.3216       0.2686   230.8
28.0000     -17369.9250  -17370.1671       0.2421   208.1
28.2500     -17369.8943  -17370.2059       0.3117   267.9
28.5000     -17369.9372  -17370.1786       0.2414   207.5
28.7500     -17369.7614  -17370.0798       0.3184   273.7
29.0000     -17370.0059  -17370.2788       0.2728   234.5
29.2500     -17369.7780  -17370.1697       0.3918   336.8
29.5000     -17369.9437  -17370.2305       0.2868   246.5
29.7500     -17369.9546  -17370.2305       0.2759   237.2
30.0000     -17369.9387  -17370.2911       0.3524   303.0
30.2500     -17369.8577  -17370.3178       0.4601   395.5
30.5000     -17369.8535  -17370.1894       0.3358   288.7
30.7500     -17369.9924  -17370.2070       0.2146   184.5
31.0000     -17369.7085  -17370.1940       0.4855   417.3
31.2500     -17369.9038  -17370.2278       0.3240   278.5
31.5000     -17369.7504  -17370.1165       0.3661   314.7
31.7500     -17369.8253  -17370.1852       0.3598   309.3
32.0000     -17369.8292  -17370.3587       0.5296   455.2
32.2500     -17370.0181  -17370.2794       0.2613   224.6
32.5000     -17370.1445  -17370.3303       0.1858   159.7
32.7500     -17370.1186  -17370.3173       0.1987   170.8
33.0000     -17369.9195  -17370.2551       0.3355   288.4
33.2500     -17369.8826  -17370.2821       0.3994   343.4
33.5000     -17369.9392  -17370.3085       0.3693   317.5
33.7500     -17369.8957  -17370.2178       0.3221   276.9
34.0000     -17369.9227  -17370.2207       0.2980   256.2
34.2500     -17370.0449  -17370.2582       0.2134   183.4
34.5000     -17369.7474  -17370.2903       0.5429   466.7
34.7500     -17369.9000  -17370.2602       0.3602   309.6
35.0000     -17369.8929  -17370.3081       0.4151   356.8
35.2500     -17369.9123  -17370.3372       0.4248   365.2
35.5000     -17369.9269  -17370.2393       0.3123   268.5
35.7500     -17369.9671  -17370.2617       0.2945   253.2
36.0000     -17369.6857  -17370.1327       0.4470   384.2
36.2500     -17370.0005  -17370.2822       0.2817   242.2
36.5000     -17369.9528  -17370.2651       0.3123   268.4
36.7500     -17369.9925  -17370.2643       0.2718   233.7
37.0000     -17369.8472  -17370.2041       0.3569   306.8
37.2500     -17369.7879  -17370.1676       0.3797   326.4
37.5000     -17369.8682  -17370.1562       0.2881   247.6
37.7500     -17369.7947  -17370.1395       0.3448   296.4
38.0000     -17369.4879  -17369.8342       0.3463   297.7
38.2500     -17369.8388  -17370.0418       0.2029   174.5
38.5000     -17369.7544  -17370.1553       0.4008   344.5
38.7500     -17369.6182  -17370.1912       0.5730   492.6
39.0000     -17369.8427  -17370.1308       0.2881   247.7
39.2500     -17369.9652  -17370.2179       0.2527   217.2
39.5000     -17369.7418  -17370.1071       0.3653   314.0
39.7500     -17369.7767  -17370.1800       0.4033   346.6
40.0000     -17369.8014  -17370.2747       0.4733   406.8
