Time[ps]      Etot[eV]     Epot[eV]     Ekin[eV]    T[K]
0.0000      -17370.1173  -17370.4124       0.2951   253.6
0.2500      -17369.9409  -17370.1702       0.2293   197.1
0.5000      -17369.9542  -17370.3164       0.3622   311.4
0.7500      -17369.9150  -17370.2338       0.3188   274.0
1.0000      -17369.7971  -17370.0962       0.2991   257.1
1.2500      -17369.7492  -17370.1446       0.3955   339.9
1.5000      -17369.7122  -17370.0065       0.2943   253.0
1.7500      -17370.0853  -17370.3187       0.2334   200.6
2.0000      -17370.2871  -17370.6277       0.3406   292.8
2.2500      -17370.6559  -17370.8761       0.2202   189.3
2.5000      -17371.1485  -17371.4431       0.2946   253.3
2.7500      -17371.2842  -17371.5867       0.3025   260.0
3.0000      -17370.9612  -17371.3232       0.3620   311.2
3.2500      -17371.0265  -17371.4588       0.4323   371.6
3.5000      -17371.0549  -17371.3717       0.3168   272.3
3.7500      -17371.2937  -17371.5727       0.2790   239.8
4.0000      -17371.1400  -17371.5173       0.3773   324.3
4.2500      -17371.0302  -17371.3965       0.3663   314.9
4.5000      -17371.1977  -17371.3980       0.2003   172.2
4.7500      -17371.2470  -17371.4833       0.2363   203.1
5.0000      -17371.0273  -17371.4157       0.3884   333.9
5.2500      -17371.1488  -17371.3876       0.2388   205.2
5.5000      -17371.2759  -17371.5531       0.2772   238.3
5.7500      -17371.1202  -17371.6162       0.4960   426.3
6.0000      -17371.2319  -17371.5346       0.3027   260.2
6.2500      -17371.1556  -17371.5678       0.4123   354.4
6.5000      -17371.1556  -17371.5397       0.3841   330.2
6.7500      -17371.0907  -17371.3649       0.2742   235.7
7.0000      -17371.2624  -17371.5103       0.2479   213.1
7.2500      -17371.1376  -17371.4832       0.3456   297.1
7.5000      -17371.0109  -17371.3148       0.3039   261.2
7.7500      -17370.9075  -17371.3247       0.4172   358.6
8.0000      -17371.1211  -17371.4882       0.3671   315.5
8.2500      -17371.1962  -17371.4736       0.2774   238.5
8.5000      -17371.1544  -17371.5157       0.3613   310.6
8.7500      -17370.9536  -17371.2791       0.3255   279.8
9.0000      -17370.9658  -17371.4406       0.4748   408.2
9.2500      -17370.9923  -17371.4354       0.4431   380.9
9.5000      -17371.0310  -17371.4354       0.4044   347.6
9.7500      -17371.1625  -17371.5081       0.3456   297.1
10.0000     -17371.1759  -17371.4853       0.3093   265.9
10.2500     -17371.1770  -17371.4979       0.3209   275.9
10.5000     -17371.2258  -17371.4353       0.2094   180.0
10.7500     -17371.0368  -17371.3632       0.3264   280.6
11.0000     -17371.1018  -17371.4196       0.3178   273.2
11.2500     -17371.2980  -17371.5872       0.2892   248.6
11.5000     -17371.2006  -17371.4813       0.2806   241.2
11.7500     -17371.1487  -17371.5242       0.3755   322.7
12.0000     -17371.0518  -17371.4686       0.4168   358.3
12.2500     -17370.9730  -17371.4674       0.4945   425.0
12.5000     -17371.1265  -17371.4723       0.3457   297.2
12.7500     -17371.2677  -17371.5207       0.2530   217.5
13.0000     -17371.2853  -17371.5424       0.2572   221.1
13.2500     -17370.8993  -17371.3605       0.4612   396.5
13.5000     -17371.0062  -17371.4606       0.4545   390.7
13.7500     -17370.9561  -17371.3871       0.4310   370.5
14.0000     -17370.9759  -17371.3448       0.3689   317.1
14.2500     -17371.0814  -17371.3637       0.2823   242.7
14.5000     -17371.0109  -17371.4040       0.3931   337.9
14.7500     -17371.1621  -17371.5337       0.3716   319.4
15.0000     -17371.1860  -17371.5722       0.3863   332.0
15.2500     -17370.8996  -17371.3088       0.4092   351.8
15.5000     -17371.2012  -17371.3840       0.1827   157.1
15.7500     -17371.1541  -17371.4639       0.3098   266.3
16.0000     -17371.2638  -17371.5723       0.3085   265.2
16.2500     -17371.1149  -17371.5496       0.4347   373.7
16.5000     -17371.0701  -17371.4426       0.3725   320.2
16.7500     -17371.2154  -17371.5360       0.3206   275.6
17.0000     -17371.0519  -17371.4220       0.3701   318.1
17.2500     -17371.0286  -17371.3701       0.3415   293.5
17.5000     -17371.2106  -17371.5034       0.2928   251.7
17.7500     -17371.0200  -17371.4938       0.4739   407.3
18.0000     -17371.1626  -17371.5509       0.3883   333.7
18.2500     -17371.3168  -17371.5473       0.2304   198.1
18.5000     -17371.1937  -17371.5353       0.3416   293.6
18.7500     -17371.3282  -17371.5638       0.2356   202.5
19.0000     -17371.2512  -17371.5314       0.2803   240.9
19.2500     -17371.0489  -17371.3666       0.3177   273.1
19.5000     -17371.1892  -17371.5138       0.3246   279.0
19.7500     -17371.0115  -17371.3856       0.3741   321.6
20.0000     -17370.9494  -17371.4771       0.5278   453.7
20.2500     -17370.9458  -17371.3916       0.4458   383.2
20.5000     -17371.1538  -17371.6256       0.4718   405.6
20.7500     -17371.2635  -17371.4811       0.2175   187.0
21.0000     -17371.1941  -17371.5235       0.3294   283.2
21.2500     -17371.2104  -17371.5052       0.2948   253.4
21.5000     -17371.3653  -17371.5588       0.1935   166.3
21.7500     -17371.1401  -17371.5769       0.4368   375.5
22.0000     -17371.0214  -17371.5003       0.4789   411.7
22.2500     -17371.0782  -17371.3758       0.2975   255.8
22.5000     -17370.9034  -17371.4074       0.5040   433.2
22.7500     -17371.0635  -17371.3097       0.2462   211.7
23.0000     -17371.3837  -17371.5604       0.1767   151.9
23.2500     -17371.0601  -17371.4279       0.3678   316.2
23.5000     -17371.1146  -17371.3856       0.2710   233.0
23.7500     -17371.1247  -17371.5290       0.4043   347.5
24.0000     -17371.2365  -17371.4791       0.2426   208.6
24.2500     -17370.9643  -17371.4108       0.4465   383.8
24.5000     -17371.0400  -17371.5641       0.5241   450.5
24.7500     -17371.2460  -17371.5530       0.3070   263.9
25.0000     -17371.0877  -17371.4464       0.3587   308.3
25.2500     -17371.2230  -17371.5129       0.2898   249.1
25.5000     -17371.3125  -17371.6134       0.3009   258.7
25.7500     -17371.2402  -17371.4624       0.2222   191.0
26.0000     -17370.9190  -17371.3106       0.3917   336.7
26.2500     -17371.1153  -17371.4357       0.3203   275.4
26.5000     -17371.1444  -17371.4534       0.3090   265.6
26.7500     -17371.1843  -17371.4459       0.2616   224.9
27.0000     -17371.2290  -17371.4732       0.2442   209.9
27.2500     -17371.1787  -17371.5530       0.3744   321.8
27.5000     -17371.2175  -17371.4530       0.2355   202.4
27.7500     -17371.2374  -17371.5344       0.2969   255.3
28.0000     -17370.9553  -17371.3437       0.3884   333.9
28.2500     -17370.9703  -17371.3317       0.3614   310.6
28.5000     -17371.3165  -17371.5200       0.2034   174.9
28.7500     -17371.1506  -17371.4963       0.3457   297.2
29.0000     -17371.1679  -17371.4915       0.3236   278.2
29.2500     -17371.2215  -17371.4610       0.2395   205.9
29.5000     -17371.0521  -17371.4482       0.3961   340.5
29.7500     -17371.0945  -17371.4528       0.3583   308.0
30.0000     -17371.2334  -17371.4322       0.1988   170.9
30.2500     -17371.2265  -17371.4901       0.2636   226.6
30.5000     -17371.0891  -17371.5046       0.4155   357.2
30.7500     -17371.2798  -17371.5430       0.2632   226.2
31.0000     -17371.3057  -17371.5629       0.2572   221.1
31.2500     -17371.1957  -17371.6047       0.4090   351.6
31.5000     -17371.1902  -17371.5248       0.3346   287.6
31.7500     -17371.1750  -17371.3856       0.2107   181.1
32.0000     -17371.0371  -17371.5239       0.4868   418.4
32.2500     -17371.2245  -17371.5138       0.2892   248.6
32.5000     -17371.0879  -17371.3969       0.3089   265.6
32.7500     -17371.1911  -17371.5085       0.3174   272.9
33.0000     -17370.9485  -17371.4268       0.4783   411.2
33.2500     -17371.0705  -17371.5137       0.4433   381.0
33.5000     -17371.0915  -17371.4113       0.3198   274.9
33.7500     -17371.0745  -17371.5495       0.4750   408.3
34.0000     -17371.0692  -17371.4679       0.3987   342.8
34.2500     -17371.1647  -17371.5201       0.3554   305.5
34.5000     -17371.0683  -17371.4073       0.3391   291.5
34.7500     -17371.0692  -17371.4545       0.3853   331.2
35.0000     -17370.8946  -17371.2692       0.3746   322.0
35.2500     -17370.9238  -17371.3300       0.4062   349.2
35.5000     -17370.8695  -17371.4877       0.6182   531.4
35.7500     -17371.1765  -17371.4551       0.2786   239.5
36.0000     -17371.3147  -17371.5692       0.2544   218.7
36.2500     -17371.1034  -17371.4908       0.3875   333.1
36.5000     -17371.1926  -17371.5210       0.3285   282.4
36.7500     -17371.1114  -17371.4412       0.3298   283.5
37.0000     -17371.2360  -17371.5251       0.2891   248.5
37.2500     -17371.2563  -17371.4426       0.1863   160.1
37.5000     -17371.1157  -17371.5149       0.3992   343.2
37.7500     -17371.0459  -17371.5051       0.4592   394.7
38.0000     -17371.0075  -17371.4563       0.4489   385.8
38.2500     -17371.2591  -17371.5026       0.2435   209.3
38.5000     -17371.1970  -17371.4912       0.2942   252.9
38.7500     -17371.2957  -17371.5211       0.2254   193.8
39.0000     -17371.0126  -17371.3940       0.3814   327.8
39.2500     -17371.1256  -17371.6027       0.4772   410.2
39.5000     -17371.2914  -17371.5624       0.2710   233.0
39.7500     -17371.0960  -17371.4103       0.3143   270.2
40.0000     -17371.0521  -17371.4914       0.4393   377.6
