Time[ps]      Etot[eV]     Epot[eV]     Ekin[eV]    T[K]
0.0000      -17369.9796  -17370.4124       0.4327   372.0
0.2500      -17370.0824  -17370.3196       0.2372   203.9
0.5000      -17369.8680  -17370.2139       0.3459   297.3
0.7500      -17369.8629  -17370.2122       0.3494   300.3
1.0000      -17369.9760  -17370.2414       0.2654   228.2
1.2500      -17369.6088  -17369.9527       0.3439   295.6
1.5000      -17369.8678  -17370.1244       0.2566   220.6
1.7500      -17369.8842  -17370.0636       0.1793   154.1
2.0000      -17369.9782  -17370.2326       0.2544   218.6
2.2500      -17370.2961  -17370.5624       0.2663   228.9
2.5000      -17370.6159  -17371.0088       0.3929   337.7
2.7500      -17370.6470  -17370.9329       0.2860   245.8
3.0000      -17370.2583  -17370.6691       0.4107   353.1
3.2500      -17370.6438  -17370.8430       0.1992   171.3
3.5000      -17370.7057  -17370.9446       0.2389   205.3
3.7500      -17370.7891  -17370.9834       0.1944   167.1
4.0000      -17370.4111  -17370.8946       0.4835   415.6
4.2500      -17370.5152  -17370.9643       0.4491   386.1
4.5000      -17370.6787  -17371.0274       0.3487   299.8
4.7500      -17370.7367  -17370.9738       0.2371   203.8
5.0000      -17370.6151  -17370.9873       0.3722   319.9
5.2500      -17370.5263  -17370.8782       0.3519   302.5
5.5000      -17370.7415  -17370.9751       0.2336   200.8
5.7500      -17370.6398  -17370.8826       0.2428   208.7
6.0000      -17370.6689  -17370.9508       0.2819   242.3
6.2500      -17370.4344  -17370.8322       0.3977   341.9
6.5000      -17370.6870  -17370.9896       0.3026   260.1
6.7500      -17370.6848  -17371.0227       0.3379   290.4
7.0000      -17370.5855  -17370.9663       0.3808   327.4
7.2500      -17370.6198  -17370.8908       0.2711   233.0
7.5000      -17370.6605  -17370.9672       0.3067   263.7
7.7500      -17370.2972  -17370.9629       0.6657   572.2
8.0000      -17370.4736  -17371.0134       0.5399   464.1
8.2500      -17370.3564  -17370.7818       0.4255   365.7
8.5000      -17370.5874  -17370.9082       0.3209   275.8
8.7500      -17370.8089  -17371.0174       0.2085   179.2
9.0000      -17370.3988  -17370.7855       0.3867   332.4
9.2500      -17370.4932  -17370.8816       0.3884   333.9
9.5000      -17370.7201  -17370.9507       0.2306   198.3
9.7500      -17370.3023  -17370.8079       0.5056   434.6
10.0000     -17370.8042  -17371.0300       0.2258   194.1
10.2500     -17370.6730  -17370.9811       0.3082   264.9
10.5000     -17370.6582  -17370.8940       0.2359   202.7
10.7500     -17370.5175  -17370.8697       0.3523   302.8
11.0000     -17370.4166  -17370.8463       0.4297   369.3
11.2500     -17370.2976  -17370.7384       0.4408   378.9
11.5000     -17370.5980  -17370.9391       0.3411   293.2
11.7500     -17370.5767  -17370.9897       0.4130   355.0
12.0000     -17370.6521  -17370.9541       0.3020   259.6
12.2500     -17370.7863  -17370.9679       0.1815   156.0
12.5000     -17370.6856  -17371.0319       0.3463   297.7
12.7500     -17370.5901  -17370.9445       0.3544   304.7
13.0000     -17370.6495  -17370.9178       0.2683   230.6
13.2500     -17370.5426  -17370.8254       0.2827   243.0
13.5000     -17370.4461  -17370.9006       0.4545   390.7
13.7500     -17370.6623  -17370.9182       0.2558   219.9
14.0000     -17370.7412  -17370.9771       0.2359   202.8
14.2500     -17370.5758  -17370.9168       0.3410   293.2
14.5000     -17370.4459  -17370.7909       0.3450   296.6
14.7500     -17370.2397  -17370.7726       0.5329   458.0
15.0000     -17370.6010  -17370.9199       0.3189   274.1
15.2500     -17370.5704  -17370.9159       0.3455   297.0
15.5000     -17370.7614  -17371.0657       0.3044   261.6
15.7500     -17370.7600  -17371.0884       0.3285   282.3
16.0000     -17370.5425  -17370.9572       0.4147   356.5
16.2500     -17370.7443  -17370.9668       0.2225   191.3
16.5000     -17370.5621  -17370.9700       0.4080   350.7
16.7500     -17370.5008  -17370.8540       0.3532   303.6
17.0000     -17370.6387  -17370.9362       0.2975   255.8
17.2500     -17370.6450  -17370.8674       0.2224   191.2
17.5000     -17370.5197  -17370.8271       0.3074   264.2
17.7500     -17370.7213  -17371.0193       0.2980   256.2
18.0000     -17370.5180  -17370.8974       0.3794   326.2
18.2500     -17370.5845  -17370.9503       0.3658   314.4
18.5000     -17370.5534  -17370.9970       0.4436   381.3
18.7500     -17370.3895  -17371.0336       0.6442   553.7
19.0000     -17370.5371  -17370.9640       0.4269   366.9
19.2500     -17370.7712  -17371.0272       0.2560   220.1
19.5000     -17370.7301  -17370.9206       0.1905   163.7
19.7500     -17370.7469  -17370.9846       0.2376   204.3
20.0000     -17370.6134  -17371.0542       0.4408   378.9
20.2500     -17370.8551  -17371.0081       0.1530   131.5
20.5000     -17370.7371  -17371.0507       0.3137   269.6
20.7500     -17370.7443  -17370.9693       0.2250   193.4
21.0000     -17370.6860  -17370.9918       0.3058   262.9
21.2500     -17370.5415  -17370.9618       0.4202   361.2
21.5000     -17370.6122  -17370.9231       0.3109   267.2
21.7500     -17370.6592  -17370.9912       0.3320   285.4
22.0000     -17370.6721  -17370.9231       0.2510   215.7
22.2500     -17370.4834  -17370.9762       0.4928   423.6
22.5000     -17370.6297  -17370.9429       0.3132   269.2
22.7500     -17370.6195  -17370.8542       0.2347   201.8
23.0000     -17370.5808  -17370.8128       0.2320   199.4
23.2500     -17370.5748  -17370.9034       0.3286   282.5
23.5000     -17370.6864  -17370.9346       0.2482   213.4
23.7500     -17370.4414  -17370.8563       0.4149   356.6
24.0000     -17370.5377  -17370.9535       0.4158   357.4
24.2500     -17370.4666  -17370.9483       0.4817   414.1
24.5000     -17370.4716  -17370.8562       0.3846   330.6
24.7500     -17370.5108  -17370.8552       0.3444   296.1
25.0000     -17370.7034  -17371.0149       0.3115   267.7
25.2500     -17370.4790  -17370.9177       0.4387   377.1
25.5000     -17370.6055  -17370.9474       0.3418   293.8
25.7500     -17370.4162  -17370.9040       0.4878   419.3
26.0000     -17370.6747  -17371.0176       0.3429   294.8
26.2500     -17370.5711  -17370.9985       0.4274   367.4
26.5000     -17370.4785  -17370.8756       0.3971   341.3
26.7500     -17370.4582  -17370.9030       0.4448   382.4
27.0000     -17370.6493  -17370.9774       0.3281   282.0
27.2500     -17370.5794  -17370.9752       0.3957   340.2
27.5000     -17370.5531  -17370.8716       0.3184   273.7
27.7500     -17370.8211  -17371.0620       0.2409   207.1
28.0000     -17370.6063  -17370.9556       0.3493   300.2
28.2500     -17370.6169  -17370.9774       0.3604   309.8
28.5000     -17370.4399  -17370.8266       0.3867   332.4
28.7500     -17370.4706  -17370.8124       0.3419   293.9
29.0000     -17370.6630  -17370.9128       0.2499   214.8
29.2500     -17370.6078  -17370.9364       0.3286   282.4
29.5000     -17370.5086  -17370.8379       0.3293   283.1
29.7500     -17370.4587  -17370.8917       0.4330   372.2
30.0000     -17370.6270  -17370.9613       0.3343   287.4
30.2500     -17370.4696  -17370.9113       0.4417   379.6
30.5000     -17370.7058  -17370.9762       0.2705   232.5
30.7500     -17370.6325  -17370.9984       0.3659   314.6
31.0000     -17370.4690  -17370.8323       0.3633   312.3
31.2500     -17370.5627  -17370.8488       0.2861   245.9
31.5000     -17370.4082  -17370.7999       0.3917   336.7
31.7500     -17370.4897  -17370.8167       0.3270   281.1
32.0000     -17370.7266  -17370.9549       0.2283   196.2
32.2500     -17370.4897  -17370.8579       0.3681   316.5
32.5000     -17370.5252  -17370.9546       0.4294   369.1
32.7500     -17370.6571  -17370.9245       0.2675   229.9
33.0000     -17370.5355  -17370.8724       0.3369   289.6
33.2500     -17370.3802  -17370.9044       0.5242   450.6
33.5000     -17370.2889  -17370.8847       0.5957   512.1
33.7500     -17370.5596  -17370.9061       0.3465   297.8
34.0000     -17370.5684  -17370.8952       0.3268   280.9
34.2500     -17370.7506  -17370.9032       0.1526   131.2
34.5000     -17370.7314  -17371.0160       0.2846   244.6
34.7500     -17370.7170  -17371.0073       0.2903   249.5
35.0000     -17370.5881  -17370.9074       0.3193   274.4
35.2500     -17370.6268  -17370.9462       0.3194   274.5
35.5000     -17370.2445  -17370.9406       0.6961   598.3
35.7500     -17370.5072  -17370.8696       0.3624   311.5
36.0000     -17370.4265  -17370.7906       0.3640   312.9
36.2500     -17370.5853  -17370.8372       0.2519   216.5
36.5000     -17370.4728  -17370.8112       0.3384   290.9
36.7500     -17370.1191  -17370.7856       0.6666   573.0
37.0000     -17370.3964  -17370.7746       0.3782   325.1
37.2500     -17370.4848  -17370.7932       0.3084   265.1
37.5000     -17370.5949  -17370.8777       0.2828   243.1
37.7500     -17370.5518  -17370.7716       0.2198   188.9
38.0000     -17370.6679  -17370.9757       0.3078   264.6
38.2500     -17370.4944  -17370.8036       0.3092   265.8
38.5000     -17370.5090  -17370.7935       0.2845   244.5
38.7500     -17370.6788  -17370.9230       0.2443   210.0
39.0000     -17370.4492  -17370.8032       0.3540   304.3
39.2500     -17370.5027  -17370.8431       0.3405   292.7
39.5000     -17370.6807  -17370.9368       0.2562   220.2
39.7500     -17370.3120  -17370.7962       0.4841   416.1
40.0000     -17370.5240  -17370.8488       0.3247   279.2
