Time[ps]      Etot[eV]     Epot[eV]     Ekin[eV]    T[K]
0.0000      -17370.1019  -17370.4124       0.3105   266.9
0.2500      -17369.9446  -17370.1786       0.2341   201.2
0.5000      -17370.0741  -17370.3774       0.3032   260.7
0.7500      -17369.8716  -17370.2698       0.3981   342.2
1.0000      -17369.9129  -17370.0462       0.1332   114.5
1.2500      -17369.5179  -17369.8990       0.3812   327.6
1.5000      -17369.3929  -17369.8491       0.4562   392.2
1.7500      -17369.7804  -17370.0997       0.3193   274.5
2.0000      -17369.8133  -17370.2777       0.4643   399.1
2.2500      -17370.0786  -17370.2799       0.2013   173.1
2.5000      -17369.9612  -17370.3019       0.3407   292.9
2.7500      -17370.1340  -17370.3237       0.1898   163.1
3.0000      -17369.9562  -17370.3468       0.3906   335.7
3.2500      -17370.1314  -17370.3638       0.2324   199.8
3.5000      -17370.0883  -17370.4057       0.3174   272.9
3.7500      -17370.0912  -17370.3730       0.2818   242.3
4.0000      -17369.8578  -17370.2223       0.3645   313.3
4.2500      -17370.1115  -17370.4207       0.3092   265.8
4.5000      -17369.7081  -17370.4503       0.7421   637.9
4.7500      -17370.1752  -17370.4529       0.2776   238.7
5.0000      -17370.1978  -17370.4813       0.2835   243.7
5.2500      -17370.1419  -17370.4139       0.2720   233.8
5.5000      -17369.9859  -17370.4795       0.4936   424.3
5.7500      -17370.0595  -17370.4512       0.3917   336.7
6.0000      -17370.0946  -17370.4527       0.3582   307.9
6.2500      -17370.2019  -17370.4283       0.2265   194.7
6.5000      -17370.0687  -17370.3486       0.2799   240.6
6.7500      -17369.9228  -17370.2608       0.3381   290.6
7.0000      -17369.9668  -17370.3450       0.3782   325.1
7.2500      -17369.8752  -17370.4555       0.5803   498.8
7.5000      -17369.8328  -17370.4156       0.5828   501.0
7.7500      -17370.0571  -17370.3481       0.2910   250.2
8.0000      -17370.0284  -17370.3124       0.2840   244.1
8.2500      -17370.1484  -17370.4404       0.2920   251.0
8.5000      -17370.1920  -17370.4428       0.2508   215.6
8.7500      -17370.1113  -17370.3573       0.2460   211.5
9.0000      -17370.1980  -17370.3908       0.1928   165.7
9.2500      -17370.0992  -17370.4212       0.3220   276.8
9.5000      -17370.0999  -17370.4264       0.3265   280.7
9.7500      -17370.2208  -17370.5170       0.2962   254.7
10.0000     -17370.2611  -17370.4611       0.2000   171.9
10.2500     -17369.9205  -17370.4033       0.4828   415.0
10.5000     -17370.0651  -17370.3356       0.2706   232.6
10.7500     -17370.2317  -17370.4543       0.2226   191.3
11.0000     -17370.2252  -17370.4450       0.2197   188.9
11.2500     -17370.1351  -17370.3667       0.2316   199.1
11.5000     -17370.0202  -17370.4205       0.4003   344.1
11.7500     -17369.8878  -17370.3965       0.5088   437.3
12.0000     -17369.9467  -17370.4066       0.4598   395.3
12.2500     -17369.7881  -17370.4498       0.6618   568.8
12.5000     -17369.7024  -17370.3855       0.6832   587.2
12.7500     -17370.2102  -17370.4285       0.2183   187.7
13.0000     -17369.9857  -17370.3183       0.3326   285.9
13.2500     -17370.1461  -17370.3761       0.2300   197.7
13.5000     -17370.0867  -17370.4148       0.3281   282.1
13.7500     -17370.1125  -17370.3806       0.2681   230.4
14.0000     -17370.0284  -17370.3965       0.3681   316.5
14.2500     -17369.9670  -17370.4305       0.4635   398.4
14.5000     -17369.9243  -17370.2713       0.3470   298.2
14.7500     -17369.9819  -17370.4341       0.4522   388.7
15.0000     -17369.8159  -17370.3125       0.4966   426.9
15.2500     -17370.0574  -17370.3511       0.2937   252.4
15.5000     -17369.6682  -17370.1978       0.5296   455.3
15.7500     -17370.0603  -17370.4430       0.3827   329.0
16.0000     -17369.9627  -17370.2192       0.2564   220.4
16.2500     -17370.1085  -17370.3472       0.2387   205.2
16.5000     -17369.8556  -17370.3769       0.5212   448.1
16.7500     -17370.0536  -17370.4000       0.3465   297.8
17.0000     -17370.0959  -17370.3080       0.2121   182.3
17.2500     -17370.1325  -17370.4757       0.3432   295.0
17.5000     -17370.0617  -17370.3648       0.3031   260.6
17.7500     -17370.2559  -17370.5105       0.2545   218.8
18.0000     -17369.9277  -17370.2725       0.3448   296.4
18.2500     -17370.1314  -17370.4198       0.2884   247.9
18.5000     -17370.0953  -17370.3321       0.2368   203.6
18.7500     -17370.1507  -17370.4412       0.2905   249.7
19.0000     -17370.1272  -17370.4172       0.2901   249.3
19.2500     -17369.8203  -17370.3724       0.5521   474.6
19.5000     -17370.0931  -17370.4755       0.3824   328.7
19.7500     -17370.1864  -17370.4911       0.3047   261.9
20.0000     -17370.0793  -17370.2453       0.1661   142.8
20.2500     -17369.9978  -17370.2790       0.2812   241.7
20.5000     -17369.9014  -17370.3183       0.4168   358.3
20.7500     -17369.8514  -17370.3220       0.4705   404.5
21.0000     -17369.9228  -17370.3837       0.4609   396.1
21.2500     -17370.0937  -17370.3943       0.3007   258.5
21.5000     -17370.0193  -17370.3901       0.3708   318.8
21.7500     -17370.0716  -17370.4167       0.3451   296.7
22.0000     -17369.8992  -17370.3437       0.4445   382.1
22.2500     -17369.7985  -17370.3040       0.5054   434.5
22.5000     -17370.1780  -17370.4123       0.2343   201.4
22.7500     -17370.1992  -17370.4025       0.2033   174.8
23.0000     -17370.0456  -17370.4056       0.3600   309.5
23.2500     -17369.9401  -17370.3424       0.4023   345.8
23.5000     -17370.0064  -17370.4345       0.4281   368.0
23.7500     -17370.0585  -17370.4294       0.3709   318.8
24.0000     -17370.0932  -17370.4576       0.3644   313.2
24.2500     -17370.2753  -17370.4688       0.1935   166.4
24.5000     -17370.0372  -17370.4874       0.4501   386.9
24.7500     -17369.9019  -17370.2688       0.3669   315.4
25.0000     -17369.8504  -17370.4048       0.5544   476.6
25.2500     -17369.9900  -17370.2628       0.2728   234.5
25.5000     -17370.0654  -17370.4095       0.3441   295.8
25.7500     -17370.1972  -17370.5185       0.3213   276.2
26.0000     -17369.8425  -17370.2508       0.4083   351.0
26.2500     -17369.7139  -17370.2258       0.5119   440.0
26.5000     -17370.0435  -17370.2890       0.2455   211.1
26.7500     -17370.1888  -17370.4251       0.2363   203.1
27.0000     -17370.0140  -17370.3936       0.3796   326.3
27.2500     -17369.9866  -17370.4356       0.4490   386.0
27.5000     -17369.9974  -17370.5412       0.5438   467.5
27.7500     -17369.9002  -17370.2331       0.3329   286.1
28.0000     -17370.1698  -17370.3810       0.2111   181.5
28.2500     -17369.6506  -17370.3411       0.6906   593.6
28.5000     -17370.1710  -17370.3961       0.2252   193.6
28.7500     -17369.9325  -17370.3597       0.4272   367.2
29.0000     -17369.9262  -17370.3284       0.4023   345.8
29.2500     -17370.0649  -17370.4284       0.3635   312.5
29.5000     -17369.9722  -17370.3883       0.4161   357.7
29.7500     -17369.8400  -17370.2145       0.3745   321.9
30.0000     -17370.0995  -17370.3486       0.2491   214.1
30.2500     -17369.9638  -17370.3115       0.3477   298.9
30.5000     -17370.1824  -17370.5530       0.3706   318.6
30.7500     -17370.0850  -17370.4437       0.3586   308.3
31.0000     -17370.0067  -17370.3850       0.3783   325.2
31.2500     -17370.2478  -17370.5544       0.3066   263.6
31.5000     -17369.9524  -17370.4435       0.4911   422.2
31.7500     -17370.2371  -17370.4819       0.2448   210.4
32.0000     -17370.1747  -17370.4063       0.2316   199.1
32.2500     -17370.0301  -17370.4352       0.4051   348.3
32.5000     -17370.1829  -17370.4338       0.2510   215.7
32.7500     -17369.8255  -17370.4228       0.5973   513.4
33.0000     -17370.0262  -17370.3799       0.3537   304.0
33.2500     -17370.0755  -17370.4409       0.3654   314.1
33.5000     -17370.0424  -17370.4034       0.3610   310.4
33.7500     -17370.0935  -17370.3986       0.3051   262.2
34.0000     -17369.9556  -17370.3379       0.3824   328.7
34.2500     -17369.8973  -17370.4173       0.5200   447.0
34.5000     -17370.2288  -17370.4945       0.2657   228.4
34.7500     -17370.0175  -17370.4699       0.4524   388.9
35.0000     -17370.0765  -17370.4229       0.3464   297.8
35.2500     -17370.2793  -17370.4738       0.1945   167.2
35.5000     -17370.1556  -17370.4472       0.2917   250.7
35.7500     -17370.0634  -17370.4274       0.3640   312.9
36.0000     -17370.1374  -17370.4527       0.3154   271.1
36.2500     -17370.0509  -17370.4898       0.4389   377.3
36.5000     -17370.2438  -17370.5281       0.2843   244.4
36.7500     -17370.1633  -17370.3767       0.2135   183.5
37.0000     -17370.1536  -17370.3905       0.2368   203.6
37.2500     -17370.0243  -17370.3173       0.2931   251.9
37.5000     -17370.2794  -17370.5179       0.2385   205.0
37.7500     -17370.0535  -17370.4225       0.3690   317.2
38.0000     -17370.1630  -17370.4871       0.3242   278.6
38.2500     -17369.9369  -17370.4165       0.4796   412.2
38.5000     -17369.9979  -17370.3502       0.3523   302.8
38.7500     -17370.0773  -17370.4033       0.3259   280.2
39.0000     -17370.1873  -17370.4726       0.2853   245.2
39.2500     -17370.1597  -17370.5001       0.3404   292.6
39.5000     -17370.0362  -17370.3332       0.2970   255.3
39.7500     -17370.1315  -17370.5099       0.3784   325.3
40.0000     -17369.9344  -17370.4178       0.4835   415.6
