Time[ps]      Etot[eV]     Epot[eV]     Ekin[eV]    T[K]
0.0000      -17370.2384  -17370.4124       0.1739   149.5
0.2500      -17369.9475  -17370.2435       0.2960   254.4
0.5000      -17369.8201  -17370.2933       0.4733   406.8
0.7500      -17369.8765  -17370.2788       0.4024   345.9
1.0000      -17369.8565  -17370.1837       0.3272   281.2
1.2500      -17370.0012  -17370.1879       0.1867   160.5
1.5000      -17369.6881  -17370.0634       0.3753   322.6
1.7500      -17369.4427  -17369.9116       0.4689   403.0
2.0000      -17369.4602  -17369.9159       0.4557   391.7
2.2500      -17369.7573  -17370.0890       0.3317   285.1
2.5000      -17369.7254  -17370.2622       0.5369   461.5
2.7500      -17369.7810  -17370.2352       0.4543   390.5
3.0000      -17370.1255  -17370.4891       0.3635   312.5
3.2500      -17370.2291  -17370.4579       0.2288   196.7
3.5000      -17370.0997  -17370.4474       0.3477   298.9
3.7500      -17369.9288  -17370.4116       0.4829   415.1
4.0000      -17369.8271  -17370.3050       0.4778   410.7
4.2500      -17370.1524  -17370.5034       0.3510   301.7
4.5000      -17370.1787  -17370.4445       0.2658   228.5
4.7500      -17370.2746  -17370.5067       0.2321   199.5
5.0000      -17370.1019  -17370.4957       0.3939   338.6
5.2500      -17370.1055  -17370.4877       0.3822   328.6
5.5000      -17370.1648  -17370.5371       0.3723   320.0
5.7500      -17370.3330  -17370.4804       0.1473   126.7
6.0000      -17370.1721  -17370.4388       0.2668   229.3
6.2500      -17370.0670  -17370.4542       0.3872   332.9
6.5000      -17370.2321  -17370.5711       0.3390   291.4
6.7500      -17370.1138  -17370.5260       0.4122   354.3
7.0000      -17370.2254  -17370.4803       0.2548   219.1
7.2500      -17370.1265  -17370.3815       0.2550   219.2
7.5000      -17370.1673  -17370.5828       0.4155   357.1
7.7500      -17370.1971  -17370.5690       0.3719   319.7
8.0000      -17370.0936  -17370.6051       0.5114   439.6
8.2500      -17370.1482  -17370.5171       0.3688   317.0
8.5000      -17370.3540  -17370.5519       0.1980   170.2
8.7500      -17369.9908  -17370.4930       0.5023   431.7
9.0000      -17370.0136  -17370.3962       0.3826   328.8
9.2500      -17370.2738  -17370.5756       0.3017   259.4
9.5000      -17370.3192  -17370.5561       0.2369   203.7
9.7500      -17370.2451  -17370.5774       0.3323   285.6
10.0000     -17370.2341  -17370.5511       0.3170   272.5
10.2500     -17370.1788  -17370.5720       0.3933   338.1
10.5000     -17370.1574  -17370.5749       0.4175   358.9
10.7500     -17370.2168  -17370.5717       0.3549   305.1
11.0000     -17370.1845  -17370.5311       0.3466   298.0
11.2500     -17370.3124  -17370.5945       0.2821   242.5
11.5000     -17370.1855  -17370.5875       0.4021   345.6
11.7500     -17370.0056  -17370.5118       0.5062   435.1
12.0000     -17370.3016  -17370.5821       0.2805   241.1
12.2500     -17370.0546  -17370.5800       0.5254   451.6
12.5000     -17370.1086  -17370.5322       0.4236   364.1
12.7500     -17369.9468  -17370.4211       0.4743   407.7
13.0000     -17370.3191  -17370.5833       0.2642   227.1
13.2500     -17370.2494  -17370.5751       0.3258   280.0
13.5000     -17370.2001  -17370.5505       0.3505   301.3
13.7500     -17370.2315  -17370.4840       0.2524   217.0
14.0000     -17370.1446  -17370.6199       0.4753   408.6
14.2500     -17369.9874  -17370.5234       0.5361   460.8
14.5000     -17370.2241  -17370.5384       0.3143   270.2
14.7500     -17370.3339  -17370.6071       0.2732   234.8
15.0000     -17370.0973  -17370.5439       0.4466   383.9
15.2500     -17370.1613  -17370.5149       0.3536   303.9
15.5000     -17370.2312  -17370.5827       0.3514   302.1
15.7500     -17370.2307  -17370.5111       0.2804   241.0
16.0000     -17370.3016  -17370.6061       0.3045   261.8
16.2500     -17369.9095  -17370.4595       0.5499   472.7
16.5000     -17370.3171  -17370.5505       0.2334   200.6
16.7500     -17370.3432  -17370.5811       0.2380   204.5
17.0000     -17370.2024  -17370.5774       0.3750   322.4
17.2500     -17370.2179  -17370.4626       0.2448   210.4
17.5000     -17370.0329  -17370.3761       0.3432   295.0
17.7500     -17369.9867  -17370.4133       0.4266   366.7
18.0000     -17370.2669  -17370.5716       0.3047   261.9
18.2500     -17370.2385  -17370.5372       0.2987   256.7
18.5000     -17370.2107  -17370.5590       0.3483   299.4
18.7500     -17370.1729  -17370.4758       0.3028   260.3
19.0000     -17370.1544  -17370.5401       0.3857   331.5
19.2500     -17370.0567  -17370.5649       0.5081   436.8
19.5000     -17370.0157  -17370.3381       0.3224   277.1
19.7500     -17370.1478  -17370.5165       0.3687   316.9
20.0000     -17370.0172  -17370.4371       0.4199   360.9
20.2500     -17370.1574  -17370.4961       0.3387   291.1
20.5000     -17370.2175  -17370.5253       0.3078   264.5
20.7500     -17370.0394  -17370.3516       0.3123   268.4
21.0000     -17369.9605  -17370.3164       0.3559   306.0
21.2500     -17370.1203  -17370.4482       0.3280   281.9
21.5000     -17370.0292  -17370.4318       0.4026   346.1
21.7500     -17370.0357  -17370.4665       0.4308   370.3
22.0000     -17370.0738  -17370.5140       0.4402   378.4
22.2500     -17370.1561  -17370.4556       0.2995   257.5
22.5000     -17369.9623  -17370.3698       0.4075   350.3
22.7500     -17370.1169  -17370.5457       0.4288   368.6
23.0000     -17369.7677  -17370.3187       0.5510   473.6
23.2500     -17370.0936  -17370.3565       0.2629   226.0
23.5000     -17370.0246  -17370.4839       0.4593   394.8
23.7500     -17370.0105  -17370.4619       0.4514   388.0
24.0000     -17370.0722  -17370.5356       0.4635   398.4
24.2500     -17370.0849  -17370.3506       0.2657   228.4
24.5000     -17369.8327  -17370.3505       0.5178   445.1
24.7500     -17370.1059  -17370.4245       0.3186   273.9
25.0000     -17369.9982  -17370.3374       0.3391   291.5
25.2500     -17370.2018  -17370.5057       0.3040   261.3
25.5000     -17370.0862  -17370.5458       0.4596   395.1
25.7500     -17370.0620  -17370.3958       0.3338   286.9
26.0000     -17370.1929  -17370.4281       0.2353   202.2
26.2500     -17370.1130  -17370.4758       0.3628   311.9
26.5000     -17370.1423  -17370.4967       0.3545   304.7
26.7500     -17370.0754  -17370.3252       0.2498   214.8
27.0000     -17370.2139  -17370.3165       0.1026    88.2
27.2500     -17370.0065  -17370.3119       0.3054   262.5
27.5000     -17370.0589  -17370.3502       0.2913   250.4
27.7500     -17370.0334  -17370.5073       0.4739   407.4
28.0000     -17370.0208  -17370.4053       0.3845   330.5
28.2500     -17370.1971  -17370.5283       0.3312   284.7
28.5000     -17369.9865  -17370.3865       0.4001   343.9
28.7500     -17369.8466  -17370.2855       0.4389   377.2
29.0000     -17370.2389  -17370.4753       0.2364   203.2
29.2500     -17370.2521  -17370.5671       0.3150   270.8
29.5000     -17370.1185  -17370.3557       0.2372   203.9
29.7500     -17370.0596  -17370.4389       0.3793   326.0
30.0000     -17370.0268  -17370.3522       0.3253   279.7
30.2500     -17369.9903  -17370.3561       0.3658   314.4
30.5000     -17370.0812  -17370.3463       0.2651   227.9
30.7500     -17369.7817  -17370.3389       0.5571   478.9
31.0000     -17369.9002  -17370.3784       0.4782   411.0
31.2500     -17370.0067  -17370.3255       0.3187   274.0
31.5000     -17369.9209  -17370.3739       0.4530   389.4
31.7500     -17370.0674  -17370.4163       0.3489   299.9
32.0000     -17370.1555  -17370.4474       0.2919   250.9
32.2500     -17370.1515  -17370.4587       0.3072   264.0
32.5000     -17370.0639  -17370.4643       0.4004   344.2
32.7500     -17369.9378  -17370.3626       0.4248   365.2
33.0000     -17370.1009  -17370.4808       0.3799   326.6
33.2500     -17370.2489  -17370.4068       0.1579   135.7
33.5000     -17370.2762  -17370.5044       0.2282   196.2
33.7500     -17370.1663  -17370.4437       0.2775   238.5
34.0000     -17369.9679  -17370.3293       0.3615   310.7
34.2500     -17369.8679  -17370.2326       0.3647   313.5
34.5000     -17370.2841  -17370.5044       0.2203   189.4
34.7500     -17370.2303  -17370.5100       0.2797   240.4
35.0000     -17370.0125  -17370.2909       0.2784   239.3
35.2500     -17370.0809  -17370.4094       0.3285   282.3
35.5000     -17370.0188  -17370.4271       0.4084   351.0
35.7500     -17370.1659  -17370.4712       0.3053   262.4
36.0000     -17369.9575  -17370.4183       0.4609   396.2
36.2500     -17370.0871  -17370.4197       0.3326   285.9
36.5000     -17369.8388  -17370.4018       0.5629   483.9
36.7500     -17370.1808  -17370.4873       0.3065   263.5
37.0000     -17370.2155  -17370.4458       0.2304   198.0
37.2500     -17369.9369  -17370.2413       0.3044   261.6
37.5000     -17370.2846  -17370.5681       0.2835   243.7
37.7500     -17370.2226  -17370.4833       0.2607   224.1
38.0000     -17370.1673  -17370.4191       0.2518   216.4
38.2500     -17369.8655  -17370.3840       0.5185   445.7
38.5000     -17369.8983  -17370.2315       0.3332   286.4
38.7500     -17370.1332  -17370.3844       0.2513   216.0
39.0000     -17369.8478  -17370.3995       0.5517   474.2
39.2500     -17369.9654  -17370.3463       0.3808   327.4
39.5000     -17370.0731  -17370.4242       0.3511   301.8
39.7500     -17369.9972  -17370.3754       0.3782   325.1
40.0000     -17369.8750  -17370.4010       0.5260   452.1
