Time[ps]      Etot[eV]     Epot[eV]     Ekin[eV]    T[K]
0.0000      -17370.1323  -17370.4124       0.2801   240.7
0.2500      -17369.9887  -17370.3421       0.3534   303.8
0.5000      -17369.7121  -17370.1976       0.4854   417.3
0.7500      -17369.8445  -17370.2225       0.3780   324.9
1.0000      -17369.7324  -17370.0233       0.2909   250.0
1.2500      -17369.5964  -17369.8988       0.3024   260.0
1.5000      -17369.5899  -17370.0895       0.4996   429.5
1.7500      -17369.6327  -17370.1315       0.4988   428.8
2.0000      -17369.7619  -17370.3383       0.5764   495.5
2.2500      -17370.1771  -17370.4836       0.3066   263.5
2.5000      -17370.0719  -17370.4503       0.3784   325.2
2.7500      -17370.1716  -17370.4745       0.3029   260.4
3.0000      -17370.0201  -17370.3392       0.3190   274.2
3.2500      -17370.1170  -17370.3659       0.2490   214.0
3.5000      -17370.0346  -17370.4686       0.4340   373.1
3.7500      -17369.8141  -17370.3504       0.5363   461.0
4.0000      -17370.2611  -17370.4675       0.2064   177.4
4.2500      -17369.9202  -17370.3881       0.4679   402.2
4.5000      -17370.1597  -17370.4523       0.2926   251.5
4.7500      -17370.1387  -17370.4389       0.3003   258.1
5.0000      -17369.9818  -17370.4345       0.4527   389.1
5.2500      -17370.1081  -17370.4329       0.3248   279.2
5.5000      -17370.0977  -17370.3300       0.2323   199.7
5.7500      -17369.6659  -17370.2587       0.5927   509.5
6.0000      -17369.7537  -17370.1754       0.4217   362.5
6.2500      -17369.9250  -17370.4375       0.5125   440.5
6.5000      -17370.0357  -17370.4013       0.3655   314.2
6.7500      -17369.9666  -17370.3259       0.3593   308.9
7.0000      -17369.9989  -17370.3446       0.3457   297.2
7.2500      -17369.9065  -17370.4201       0.5136   441.5
7.5000      -17370.0667  -17370.3750       0.3084   265.1
7.7500      -17369.6966  -17370.2877       0.5912   508.2
8.0000      -17369.5753  -17370.0863       0.5109   439.2
8.2500      -17370.0265  -17370.3520       0.3255   279.8
8.5000      -17369.7330  -17370.2754       0.5424   466.2
8.7500      -17369.8847  -17370.3065       0.4217   362.5
9.0000      -17370.1204  -17370.4653       0.3450   296.5
9.2500      -17370.0486  -17370.4267       0.3780   325.0
9.5000      -17369.9831  -17370.3290       0.3459   297.4
9.7500      -17369.8323  -17370.3808       0.5484   471.4
10.0000     -17369.9625  -17370.3455       0.3830   329.2
10.2500     -17369.9095  -17370.2897       0.3803   326.9
10.5000     -17370.2797  -17370.4402       0.1606   138.0
10.7500     -17369.9399  -17370.4150       0.4751   408.4
11.0000     -17370.0650  -17370.4129       0.3479   299.0
11.2500     -17369.9440  -17370.3642       0.4202   361.2
11.5000     -17370.1309  -17370.4777       0.3468   298.1
11.7500     -17370.1029  -17370.4093       0.3064   263.4
12.0000     -17369.8834  -17370.2555       0.3721   319.9
12.2500     -17370.0382  -17370.4759       0.4378   376.3
12.5000     -17370.0801  -17370.3658       0.2857   245.6
12.7500     -17369.9396  -17370.4382       0.4986   428.6
13.0000     -17370.0394  -17370.3449       0.3055   262.6
13.2500     -17370.0314  -17370.4366       0.4052   348.3
13.5000     -17370.1087  -17370.4398       0.3312   284.7
13.7500     -17370.1809  -17370.4022       0.2213   190.2
14.0000     -17370.0628  -17370.3452       0.2824   242.7
14.2500     -17369.9997  -17370.3579       0.3582   307.9
14.5000     -17369.7867  -17370.1791       0.3924   337.3
14.7500     -17369.9323  -17370.3114       0.3791   325.9
15.0000     -17370.2458  -17370.5088       0.2630   226.1
15.2500     -17370.1267  -17370.4423       0.3156   271.3
15.5000     -17370.0964  -17370.4273       0.3309   284.4
15.7500     -17370.3382  -17370.4693       0.1311   112.7
16.0000     -17370.1087  -17370.5050       0.3962   340.6
16.2500     -17369.9261  -17370.3265       0.4004   344.2
16.5000     -17370.0370  -17370.4150       0.3780   324.9
16.7500     -17369.8770  -17370.1334       0.2564   220.4
17.0000     -17369.8568  -17370.4494       0.5926   509.4
17.2500     -17369.9714  -17370.3746       0.4033   346.6
17.5000     -17369.9956  -17370.3241       0.3285   282.4
17.7500     -17370.2028  -17370.4910       0.2881   247.7
18.0000     -17369.9842  -17370.3588       0.3747   322.1
18.2500     -17370.0422  -17370.3554       0.3132   269.3
18.5000     -17369.9578  -17370.2930       0.3351   288.1
18.7500     -17369.8776  -17370.2575       0.3799   326.5
19.0000     -17370.0686  -17370.4171       0.3485   299.5
19.2500     -17370.0776  -17370.3410       0.2634   226.5
19.5000     -17369.9950  -17370.3165       0.3215   276.3
19.7500     -17369.9200  -17370.4883       0.5682   488.4
20.0000     -17369.8596  -17370.4081       0.5485   471.5
20.2500     -17370.0353  -17370.4916       0.4563   392.2
20.5000     -17369.9679  -17370.4122       0.4443   382.0
20.7500     -17370.1603  -17370.4377       0.2774   238.5
21.0000     -17370.0413  -17370.3535       0.3122   268.4
21.2500     -17369.9107  -17370.3824       0.4717   405.5
21.5000     -17370.0483  -17370.3993       0.3509   301.7
21.7500     -17369.7807  -17370.3219       0.5412   465.2
22.0000     -17369.7989  -17370.4501       0.6512   559.8
22.2500     -17370.1207  -17370.4946       0.3740   321.5
22.5000     -17369.7798  -17370.4094       0.6296   541.2
22.7500     -17370.0633  -17370.4172       0.3539   304.2
23.0000     -17369.9484  -17370.3290       0.3805   327.1
23.2500     -17369.9932  -17370.4348       0.4416   379.6
23.5000     -17370.0876  -17370.3949       0.3072   264.1
23.7500     -17370.0740  -17370.3327       0.2587   222.4
24.0000     -17369.8820  -17370.2879       0.4059   348.9
24.2500     -17370.0204  -17370.3763       0.3559   305.9
24.5000     -17369.9912  -17370.3563       0.3652   313.9
24.7500     -17370.1688  -17370.4084       0.2396   206.0
25.0000     -17370.0815  -17370.4317       0.3502   301.0
25.2500     -17370.1326  -17370.3422       0.2096   180.2
25.5000     -17370.0285  -17370.2857       0.2572   221.1
25.7500     -17370.2128  -17370.4470       0.2342   201.3
26.0000     -17370.0673  -17370.3527       0.2854   245.3
26.2500     -17370.1281  -17370.4650       0.3369   289.6
26.5000     -17369.9285  -17370.4139       0.4855   417.3
26.7500     -17369.9983  -17370.3101       0.3118   268.0
27.0000     -17370.3196  -17370.4707       0.1512   129.9
27.2500     -17370.2224  -17370.4686       0.2462   211.7
27.5000     -17370.1147  -17370.4942       0.3796   326.3
27.7500     -17370.1256  -17370.4649       0.3393   291.6
28.0000     -17370.0276  -17370.4141       0.3865   332.2
28.2500     -17370.0577  -17370.3310       0.2732   234.9
28.5000     -17370.2131  -17370.4874       0.2743   235.8
28.7500     -17369.7563  -17370.3431       0.5868   504.4
29.0000     -17370.0566  -17370.3238       0.2672   229.7
29.2500     -17369.9085  -17370.3637       0.4552   391.3
29.5000     -17370.0369  -17370.3743       0.3374   290.0
29.7500     -17369.9803  -17370.3680       0.3877   333.3
30.0000     -17370.2688  -17370.4346       0.1657   142.5
30.2500     -17370.0752  -17370.3903       0.3150   270.8
30.5000     -17370.2666  -17370.4964       0.2297   197.5
30.7500     -17370.0442  -17370.4088       0.3647   313.5
31.0000     -17370.0672  -17370.4055       0.3383   290.8
31.2500     -17370.0527  -17370.3915       0.3388   291.2
31.5000     -17369.8758  -17370.3512       0.4754   408.6
31.7500     -17370.0236  -17370.3740       0.3504   301.2
32.0000     -17370.1141  -17370.4019       0.2878   247.4
32.2500     -17369.8730  -17370.3423       0.4694   403.5
32.5000     -17370.0772  -17370.3806       0.3034   260.8
32.7500     -17369.8511  -17370.2255       0.3744   321.8
33.0000     -17369.8937  -17370.1500       0.2563   220.3
33.2500     -17369.8828  -17370.3046       0.4218   362.6
33.5000     -17369.9861  -17370.3426       0.3565   306.4
33.7500     -17369.9450  -17370.1567       0.2117   182.0
34.0000     -17369.9419  -17370.3296       0.3876   333.2
34.2500     -17369.8331  -17370.3460       0.5129   440.9
34.5000     -17369.9575  -17370.2437       0.2862   246.0
34.7500     -17370.1380  -17370.3664       0.2284   196.3
35.0000     -17369.9529  -17370.4094       0.4565   392.4
35.2500     -17369.9578  -17370.3362       0.3784   325.3
35.5000     -17370.3089  -17370.4449       0.1360   116.9
35.7500     -17370.0123  -17370.4133       0.4010   344.7
36.0000     -17369.9439  -17370.2904       0.3465   297.8
36.2500     -17370.0796  -17370.3216       0.2420   208.0
36.5000     -17370.0659  -17370.4563       0.3905   335.6
36.7500     -17369.8638  -17370.2886       0.4248   365.1
37.0000     -17370.0348  -17370.3670       0.3322   285.5
37.2500     -17370.2142  -17370.4474       0.2331   200.4
37.5000     -17369.9424  -17370.4293       0.4869   418.5
37.7500     -17369.8162  -17370.3371       0.5209   447.8
38.0000     -17370.0419  -17370.3397       0.2978   256.0
38.2500     -17370.1152  -17370.4412       0.3260   280.2
38.5000     -17370.0507  -17370.4569       0.4063   349.2
38.7500     -17370.2558  -17370.4002       0.1444   124.1
39.0000     -17369.7268  -17370.2506       0.5238   450.2
39.2500     -17370.1643  -17370.3724       0.2081   178.8
39.5000     -17370.0655  -17370.4185       0.3529   303.4
39.7500     -17370.1159  -17370.3937       0.2778   238.8
40.0000     -17369.7468  -17370.2823       0.5356   460.4
