Time[ps]      Etot[eV]     Epot[eV]     Ekin[eV]    T[K]
0.0000      -17370.0943  -17370.4124       0.3181   273.4
0.2500      -17369.6070  -17370.1367       0.5297   455.3
0.5000      -17369.9177  -17370.2678       0.3501   300.9
0.7500      -17369.7121  -17370.1334       0.4213   362.1
1.0000      -17369.9889  -17370.3086       0.3197   274.8
1.2500      -17369.9712  -17370.3051       0.3339   287.0
1.5000      -17369.9187  -17370.1957       0.2770   238.1
1.7500      -17369.7788  -17370.2030       0.4242   364.6
2.0000      -17369.5732  -17370.1046       0.5313   456.7
2.2500      -17369.6324  -17370.0230       0.3905   335.7
2.5000      -17369.7630  -17370.1361       0.3731   320.7
2.7500      -17369.6263  -17369.9752       0.3489   299.9
3.0000      -17369.5918  -17370.1764       0.5846   502.5
3.2500      -17370.0652  -17370.3838       0.3186   273.9
3.5000      -17370.0542  -17370.4110       0.3568   306.7
3.7500      -17369.8806  -17370.2956       0.4150   356.7
4.0000      -17370.0278  -17370.4698       0.4421   380.0
4.2500      -17369.8870  -17370.3016       0.4146   356.4
4.5000      -17368.4089  -17368.8120       0.4030   346.5
4.7500      -17368.8709  -17369.4506       0.5796   498.3
5.0000      -17369.3493  -17369.5598       0.2105   180.9
5.2500      -17369.0852  -17369.5017       0.4165   358.0
5.5000      -17368.9294  -17369.4775       0.5481   471.1
5.7500      -17369.2590  -17369.5567       0.2977   255.9
6.0000      -17368.7217  -17369.2237       0.5020   431.5
6.2500      -17368.9915  -17369.4685       0.4770   410.0
6.5000      -17369.1080  -17369.3094       0.2015   173.2
6.7500      -17368.9851  -17369.4377       0.4526   389.1
7.0000      -17369.1017  -17369.3992       0.2975   255.7
7.2500      -17369.1703  -17369.4859       0.3157   271.3
7.5000      -17369.2634  -17369.4722       0.2087   179.4
7.7500      -17369.3461  -17369.6133       0.2672   229.7
8.0000      -17369.1576  -17369.4068       0.2492   214.2
8.2500      -17369.1170  -17369.4513       0.3343   287.3
8.5000      -17369.1860  -17369.4782       0.2922   251.2
8.7500      -17368.8927  -17369.3437       0.4509   387.6
9.0000      -17369.3016  -17369.5267       0.2251   193.5
9.2500      -17369.0240  -17369.3301       0.3061   263.1
9.5000      -17368.7978  -17369.3755       0.5777   496.6
9.7500      -17369.3011  -17369.5377       0.2366   203.4
10.0000     -17368.9542  -17369.3916       0.4374   375.9
10.2500     -17369.2566  -17369.6371       0.3805   327.0
10.5000     -17369.1270  -17369.4867       0.3597   309.2
10.7500     -17368.9739  -17369.3880       0.4141   355.9
11.0000     -17369.2207  -17369.4307       0.2100   180.5
11.2500     -17369.0855  -17369.4418       0.3563   306.2
11.5000     -17369.2927  -17369.5567       0.2639   226.9
11.7500     -17369.2759  -17369.5601       0.2841   244.2
12.0000     -17369.2178  -17369.4962       0.2784   239.3
12.2500     -17369.1587  -17369.4719       0.3132   269.3
12.5000     -17369.0936  -17369.4493       0.3557   305.7
12.7500     -17369.2427  -17369.4923       0.2496   214.5
13.0000     -17368.9283  -17369.3875       0.4592   394.7
13.2500     -17368.9325  -17369.4435       0.5110   439.3
13.5000     -17369.1565  -17369.5316       0.3751   322.5
13.7500     -17369.3717  -17369.5971       0.2254   193.8
14.0000     -17369.1933  -17369.5379       0.3446   296.2
14.2500     -17369.1697  -17369.5243       0.3546   304.8
14.5000     -17369.2681  -17369.5718       0.3037   261.1
14.7500     -17369.0020  -17369.4021       0.4000   343.9
15.0000     -17369.0538  -17369.4507       0.3969   341.1
15.2500     -17369.0188  -17369.3793       0.3605   309.9
15.5000     -17368.9940  -17369.3263       0.3323   285.6
15.7500     -17368.9454  -17369.2605       0.3151   270.8
16.0000     -17369.2356  -17369.5796       0.3440   295.7
16.2500     -17369.0646  -17369.2487       0.1841   158.2
16.5000     -17368.9799  -17369.4238       0.4439   381.5
16.7500     -17368.9890  -17369.4048       0.4158   357.4
17.0000     -17369.0703  -17369.5511       0.4808   413.3
17.2500     -17369.2255  -17369.4221       0.1966   169.0
17.5000     -17369.2094  -17369.6289       0.4195   360.6
17.7500     -17369.1632  -17369.3949       0.2316   199.1
18.0000     -17369.1169  -17369.5411       0.4242   364.6
18.2500     -17369.0722  -17369.4354       0.3632   312.2
18.5000     -17368.9976  -17369.3098       0.3122   268.4
18.7500     -17369.0234  -17369.4213       0.3978   342.0
19.0000     -17369.0348  -17369.5080       0.4732   406.7
19.2500     -17369.2881  -17369.5533       0.2653   228.0
19.5000     -17369.2488  -17369.4909       0.2422   208.2
19.7500     -17369.2087  -17369.5265       0.3178   273.2
20.0000     -17369.3489  -17369.6723       0.3235   278.1
20.2500     -17369.0172  -17369.4387       0.4215   362.3
20.5000     -17369.0615  -17369.3421       0.2806   241.2
20.7500     -17369.1609  -17369.4807       0.3198   274.9
21.0000     -17368.9748  -17369.3645       0.3897   335.0
21.2500     -17369.1926  -17369.4456       0.2529   217.4
21.5000     -17369.2222  -17369.6262       0.4039   347.2
21.7500     -17369.0873  -17369.3412       0.2540   218.3
22.0000     -17369.1811  -17369.4666       0.2854   245.4
22.2500     -17369.1544  -17369.6911       0.5367   461.3
22.5000     -17369.1868  -17369.4191       0.2323   199.7
22.7500     -17369.0504  -17369.3402       0.2898   249.1
23.0000     -17369.0326  -17369.4427       0.4101   352.5
23.2500     -17369.0163  -17369.4950       0.4787   411.5
23.5000     -17369.3687  -17369.5621       0.1934   166.2
23.7500     -17369.2676  -17369.5958       0.3282   282.1
24.0000     -17369.2570  -17369.4756       0.2186   187.9
24.2500     -17369.2993  -17369.5215       0.2222   191.0
24.5000     -17368.9185  -17369.5074       0.5890   506.3
24.7500     -17369.1043  -17369.3722       0.2679   230.3
25.0000     -17369.2993  -17369.6204       0.3211   276.0
25.2500     -17369.3031  -17369.5721       0.2691   231.3
25.5000     -17368.9549  -17369.4620       0.5071   435.9
25.7500     -17369.2242  -17369.4376       0.2134   183.4
26.0000     -17368.9305  -17369.3638       0.4333   372.5
26.2500     -17369.2284  -17369.4508       0.2225   191.2
26.5000     -17369.2034  -17369.5136       0.3102   266.7
26.7500     -17369.0001  -17369.5085       0.5084   437.0
27.0000     -17369.0879  -17369.3984       0.3105   266.9
27.2500     -17369.1107  -17369.4103       0.2996   257.5
27.5000     -17369.2132  -17369.5459       0.3327   286.0
27.7500     -17369.1513  -17369.5950       0.4437   381.4
28.0000     -17368.8022  -17369.3743       0.5721   491.7
28.2500     -17368.9829  -17369.4909       0.5080   436.7
28.5000     -17369.2423  -17369.4559       0.2136   183.6
28.7500     -17369.1289  -17369.4419       0.3130   269.1
29.0000     -17369.1190  -17369.5123       0.3933   338.1
29.2500     -17369.2042  -17369.4697       0.2655   228.3
29.5000     -17369.1911  -17369.5317       0.3406   292.8
29.7500     -17369.1602  -17369.4895       0.3293   283.1
30.0000     -17369.1938  -17369.4210       0.2272   195.3
30.2500     -17369.1886  -17369.4994       0.3108   267.2
30.5000     -17369.0299  -17369.5231       0.4931   423.9
30.7500     -17369.3210  -17369.6451       0.3242   278.7
31.0000     -17368.9626  -17369.2586       0.2961   254.5
31.2500     -17369.2851  -17369.5615       0.2764   237.6
31.5000     -17369.0931  -17369.4064       0.3133   269.3
31.7500     -17369.1652  -17369.5657       0.4005   344.3
32.0000     -17369.2629  -17369.5052       0.2423   208.3
32.2500     -17369.3060  -17369.4884       0.1823   156.7
32.5000     -17369.0307  -17369.2659       0.2353   202.2
32.7500     -17369.0485  -17369.5069       0.4584   394.0
33.0000     -17369.2792  -17369.4381       0.1589   136.6
33.2500     -17369.1668  -17369.5839       0.4171   358.6
33.5000     -17369.1351  -17369.4380       0.3029   260.4
33.7500     -17369.2193  -17369.5015       0.2823   242.6
34.0000     -17369.2768  -17369.5309       0.2541   218.4
34.2500     -17369.0282  -17369.3480       0.3198   274.9
34.5000     -17369.0467  -17369.5461       0.4994   429.3
34.7500     -17369.1488  -17369.4883       0.3395   291.8
35.0000     -17369.3901  -17369.6099       0.2198   189.0
35.2500     -17369.1496  -17369.4342       0.2846   244.7
35.5000     -17369.2842  -17369.5835       0.2993   257.3
35.7500     -17369.0738  -17369.4927       0.4189   360.0
36.0000     -17369.2446  -17369.6072       0.3626   311.7
36.2500     -17368.9977  -17369.4273       0.4297   369.3
36.5000     -17369.1865  -17369.4960       0.3096   266.1
36.7500     -17369.1817  -17369.5397       0.3580   307.7
37.0000     -17369.1774  -17369.6297       0.4523   388.8
37.2500     -17369.0907  -17369.5194       0.4287   368.5
37.5000     -17369.0614  -17369.4798       0.4184   359.7
37.7500     -17369.1499  -17369.4640       0.3141   270.0
38.0000     -17369.2451  -17369.6354       0.3904   335.5
38.2500     -17369.3001  -17369.5418       0.2417   207.7
38.5000     -17369.2307  -17369.5257       0.2951   253.6
38.7500     -17369.0877  -17369.3330       0.2453   210.8
39.0000     -17369.2331  -17369.5183       0.2852   245.2
39.2500     -17369.3075  -17369.4298       0.1223   105.1
39.5000     -17369.2188  -17369.6940       0.4752   408.5
39.7500     -17369.2131  -17369.4816       0.2684   230.7
40.0000     -17369.1196  -17369.3889       0.2692   231.4
