Time[ps]      Etot[eV]     Epot[eV]     Ekin[eV]    T[K]
0.0000      -17369.9552  -17370.4124       0.4571   392.9
0.2500      -17369.9720  -17370.3148       0.3428   294.6
0.5000      -17369.8712  -17370.2723       0.4011   344.8
0.7500      -17370.1217  -17370.3427       0.2209   189.9
1.0000      -17369.8611  -17370.2800       0.4189   360.1
1.2500      -17369.8566  -17370.3451       0.4885   419.9
1.5000      -17369.8130  -17370.2642       0.4512   387.8
1.7500      -17369.7891  -17370.1578       0.3686   316.9
2.0000      -17369.7423  -17370.1648       0.4224   363.1
2.2500      -17369.6837  -17370.0175       0.3338   286.9
2.5000      -17369.9027  -17370.1530       0.2504   215.2
2.7500      -17369.8591  -17370.1753       0.3162   271.8
3.0000      -17369.5932  -17370.0606       0.4674   401.8
3.2500      -17369.7797  -17370.1382       0.3585   308.2
3.5000      -17369.7703  -17370.0778       0.3076   264.4
3.7500      -17369.6634  -17370.0852       0.4218   362.6
4.0000      -17369.8403  -17370.0359       0.1956   168.1
4.2500      -17369.7603  -17370.0831       0.3227   277.4
4.5000      -17369.6401  -17370.0901       0.4499   386.8
4.7500      -17369.7338  -17370.0452       0.3114   267.6
5.0000      -17369.8036  -17370.0218       0.2182   187.6
5.2500      -17369.6435  -17369.9760       0.3325   285.9
5.5000      -17369.7604  -17370.0730       0.3127   268.8
5.7500      -17369.6319  -17370.0258       0.3939   338.6
6.0000      -17369.6452  -17369.9479       0.3028   260.3
6.2500      -17369.6354  -17369.9862       0.3508   301.6
6.5000      -17369.7405  -17370.0325       0.2920   251.0
6.7500      -17369.5859  -17370.0287       0.4429   380.7
7.0000      -17369.3885  -17369.9118       0.5234   449.9
7.2500      -17369.5808  -17369.9752       0.3944   339.0
7.5000      -17369.8530  -17370.1084       0.2554   219.6
7.7500      -17369.7142  -17370.0887       0.3745   321.9
8.0000      -17369.6375  -17370.0368       0.3992   343.2
8.2500      -17369.7464  -17370.0406       0.2942   252.9
8.5000      -17369.6301  -17369.9635       0.3335   286.6
8.7500      -17369.5531  -17370.0102       0.4572   393.0
9.0000      -17369.8407  -17370.0847       0.2440   209.7
9.2500      -17369.8163  -17370.0738       0.2575   221.4
9.5000      -17369.6821  -17370.0084       0.3263   280.5
9.7500      -17369.6480  -17369.9814       0.3334   286.6
10.0000     -17369.4661  -17369.9710       0.5048   434.0
10.2500     -17369.6808  -17370.0355       0.3547   304.9
10.5000     -17369.7717  -17370.0284       0.2567   220.6
10.7500     -17369.6248  -17369.9424       0.3175   273.0
11.0000     -17369.4995  -17370.0806       0.5811   499.5
11.2500     -17369.5021  -17369.9989       0.4968   427.1
11.5000     -17369.7476  -17370.0269       0.2793   240.1
11.7500     -17369.8445  -17370.0800       0.2356   202.5
12.0000     -17369.5706  -17370.0532       0.4826   414.8
12.2500     -17369.7061  -17370.0040       0.2979   256.1
12.5000     -17369.8131  -17370.0592       0.2460   211.5
12.7500     -17369.5648  -17369.9809       0.4161   357.7
13.0000     -17369.5904  -17369.9087       0.3183   273.6
13.2500     -17369.4126  -17369.9036       0.4910   422.1
13.5000     -17369.6108  -17369.9622       0.3514   302.1
13.7500     -17369.7928  -17370.0684       0.2757   237.0
14.0000     -17369.6232  -17369.8896       0.2663   228.9
14.2500     -17369.7119  -17370.0124       0.3005   258.3
14.5000     -17369.6948  -17370.0359       0.3412   293.3
14.7500     -17369.7127  -17369.9944       0.2817   242.1
15.0000     -17369.7961  -17370.0698       0.2737   235.3
15.2500     -17369.4753  -17369.8492       0.3739   321.4
15.5000     -17369.5778  -17369.8541       0.2763   237.5
15.7500     -17369.7544  -17370.0313       0.2769   238.1
16.0000     -17369.6359  -17370.0304       0.3945   339.1
16.2500     -17369.6736  -17370.0707       0.3971   341.4
16.5000     -17369.5772  -17369.9297       0.3524   302.9
16.7500     -17369.7562  -17369.9771       0.2209   189.9
17.0000     -17369.5365  -17369.8772       0.3408   292.9
17.2500     -17369.7665  -17370.0574       0.2908   250.0
17.5000     -17369.7186  -17369.9730       0.2544   218.7
17.7500     -17369.5725  -17370.0300       0.4575   393.3
18.0000     -17369.7729  -17369.9827       0.2098   180.3
18.2500     -17369.5703  -17369.9857       0.4154   357.1
18.5000     -17369.5197  -17370.0622       0.5425   466.4
18.7500     -17369.6418  -17369.8827       0.2409   207.1
19.0000     -17369.6403  -17370.0174       0.3771   324.1
19.2500     -17369.9405  -17370.1044       0.1638   140.8
19.5000     -17369.6640  -17369.9322       0.2682   230.6
19.7500     -17369.5038  -17369.8578       0.3541   304.4
20.0000     -17369.5060  -17369.9918       0.4858   417.6
20.2500     -17369.3095  -17369.9540       0.6446   554.1
20.5000     -17369.7692  -17370.1429       0.3737   321.2
20.7500     -17369.5366  -17370.0340       0.4974   427.6
21.0000     -17369.8051  -17370.2445       0.4393   377.7
21.2500     -17369.7852  -17370.1662       0.3811   327.5
21.5000     -17369.9429  -17370.1803       0.2374   204.1
21.7500     -17370.0008  -17370.3274       0.3266   280.8
22.0000     -17369.9913  -17370.2235       0.2322   199.6
22.2500     -17370.1396  -17370.3201       0.1805   155.1
22.5000     -17369.7366  -17370.1644       0.4279   367.8
22.7500     -17369.7848  -17370.1244       0.3396   291.9
23.0000     -17369.8779  -17370.2069       0.3291   282.9
23.2500     -17369.8267  -17370.2433       0.4165   358.1
23.5000     -17369.7683  -17370.0851       0.3168   272.3
23.7500     -17369.6221  -17370.1173       0.4953   425.7
24.0000     -17369.7561  -17370.1527       0.3966   340.9
24.2500     -17369.7140  -17370.2103       0.4962   426.6
24.5000     -17369.7623  -17370.0928       0.3305   284.1
24.7500     -17369.8405  -17370.1027       0.2621   225.3
25.0000     -17369.7042  -17370.1532       0.4490   386.0
25.2500     -17369.7308  -17370.1902       0.4595   394.9
25.5000     -17369.9490  -17370.2037       0.2548   219.0
25.7500     -17369.8121  -17370.1151       0.3030   260.4
26.0000     -17369.8443  -17370.1869       0.3426   294.5
26.2500     -17369.9826  -17370.1560       0.1733   149.0
26.5000     -17369.6837  -17370.2131       0.5294   455.1
26.7500     -17369.8942  -17370.1997       0.3056   262.7
27.0000     -17369.9156  -17370.2493       0.3337   286.9
27.2500     -17369.9969  -17370.2414       0.2445   210.1
27.5000     -17369.8532  -17370.2655       0.4123   354.4
27.7500     -17369.8115  -17370.1704       0.3589   308.5
28.0000     -17369.8172  -17370.1757       0.3585   308.2
28.2500     -17369.9491  -17370.2218       0.2727   234.4
28.5000     -17369.8429  -17370.2462       0.4033   346.6
28.7500     -17369.6774  -17370.1728       0.4954   425.8
29.0000     -17369.9765  -17370.2642       0.2876   247.3
29.2500     -17370.0260  -17370.2864       0.2603   223.8
29.5000     -17369.6815  -17370.1091       0.4276   367.6
29.7500     -17369.8384  -17370.2074       0.3690   317.2
30.0000     -17369.8812  -17370.2792       0.3980   342.1
30.2500     -17369.8094  -17370.2954       0.4860   417.8
30.5000     -17369.8852  -17370.2234       0.3382   290.7
30.7500     -17369.8068  -17370.1901       0.3833   329.5
31.0000     -17369.8234  -17370.2510       0.4276   367.6
31.2500     -17369.8831  -17370.1750       0.2920   251.0
31.5000     -17369.8338  -17370.2315       0.3977   341.8
31.7500     -17369.6963  -17370.0575       0.3612   310.5
32.0000     -17370.0287  -17370.2651       0.2365   203.3
32.2500     -17369.8683  -17370.2762       0.4078   350.6
32.5000     -17369.6617  -17370.0648       0.4032   346.6
32.7500     -17369.9365  -17370.2007       0.2642   227.1
33.0000     -17369.9814  -17370.2459       0.2645   227.4
33.2500     -17369.9071  -17370.1878       0.2807   241.3
33.5000     -17369.6721  -17370.1783       0.5062   435.2
33.7500     -17369.8093  -17370.2289       0.4195   360.6
34.0000     -17369.9995  -17370.3214       0.3218   276.6
34.2500     -17369.9728  -17370.2974       0.3246   279.0
34.5000     -17369.8826  -17370.0850       0.2024   174.0
34.7500     -17369.5780  -17370.1096       0.5316   456.9
35.0000     -17369.7561  -17370.1890       0.4328   372.1
35.2500     -17369.9686  -17370.3551       0.3865   332.2
35.5000     -17369.4502  -17369.9208       0.4706   404.6
35.7500     -17369.8413  -17370.3521       0.5108   439.1
36.0000     -17369.8161  -17370.1619       0.3458   297.2
36.2500     -17369.9788  -17370.3054       0.3266   280.7
36.5000     -17370.0514  -17370.2795       0.2281   196.1
36.7500     -17370.0482  -17370.3626       0.3144   270.2
37.0000     -17369.9205  -17370.2883       0.3677   316.1
37.2500     -17369.8119  -17370.3216       0.5098   438.2
37.5000     -17369.7597  -17370.1631       0.4035   346.8
37.7500     -17370.0754  -17370.3354       0.2600   223.5
38.0000     -17370.0880  -17370.3407       0.2527   217.2
38.2500     -17369.9165  -17370.3423       0.4258   366.0
38.5000     -17370.0398  -17370.2973       0.2575   221.4
38.7500     -17369.8234  -17370.2323       0.4089   351.5
39.0000     -17369.7010  -17370.0990       0.3980   342.1
39.2500     -17370.0457  -17370.3005       0.2548   219.0
39.5000     -17369.9552  -17370.2538       0.2986   256.7
39.7500     -17369.7037  -17370.0703       0.3666   315.1
40.0000     -17369.9966  -17370.2684       0.2718   233.6
