Time[ps]      Etot[eV]     Epot[eV]     Ekin[eV]    T[K]
0.0000      -17370.0362  -17370.4124       0.3762   323.3
0.2500      -17369.9566  -17370.2487       0.2921   251.1
0.5000      -17369.9478  -17370.1952       0.2474   212.7
0.7500      -17370.0142  -17370.3329       0.3187   274.0
1.0000      -17369.5530  -17370.0007       0.4476   384.8
1.2500      -17369.6265  -17370.1722       0.5457   469.1
1.5000      -17369.8309  -17370.0910       0.2601   223.6
1.7500      -17369.9084  -17370.2458       0.3374   290.1
2.0000      -17369.8681  -17370.1740       0.3060   263.0
2.2500      -17369.8085  -17370.1120       0.3035   260.9
2.5000      -17369.8457  -17370.1284       0.2826   242.9
2.7500      -17369.8275  -17370.2315       0.4040   347.3
3.0000      -17369.8569  -17370.1661       0.3092   265.8
3.2500      -17369.7029  -17370.1007       0.3978   341.9
3.5000      -17369.7755  -17370.1038       0.3283   282.2
3.7500      -17369.8879  -17370.1847       0.2968   255.1
4.0000      -17369.8092  -17370.3138       0.5046   433.8
4.2500      -17369.7616  -17370.0589       0.2973   255.5
4.5000      -17369.6264  -17370.2057       0.5793   498.0
4.7500      -17369.7841  -17370.2312       0.4470   384.3
5.0000      -17369.6817  -17370.0683       0.3866   332.3
5.2500      -17369.7294  -17370.1283       0.3989   342.9
5.5000      -17369.9557  -17370.2646       0.3089   265.6
5.7500      -17369.7967  -17370.1575       0.3609   310.2
6.0000      -17369.7678  -17370.0961       0.3283   282.2
6.2500      -17370.0285  -17370.3413       0.3127   268.8
6.5000      -17369.9791  -17370.3051       0.3259   280.2
6.7500      -17369.7845  -17370.0910       0.3065   263.5
7.0000      -17369.8476  -17370.0923       0.2447   210.3
7.2500      -17369.8017  -17370.1299       0.3282   282.1
7.5000      -17370.0422  -17370.2546       0.2124   182.5
7.7500      -17369.7257  -17370.0673       0.3416   293.7
8.0000      -17369.7346  -17370.1396       0.4050   348.1
8.2500      -17369.8589  -17370.1199       0.2610   224.3
8.5000      -17369.9190  -17370.1572       0.2382   204.8
8.7500      -17369.7380  -17370.0474       0.3093   265.9
9.0000      -17369.7971  -17370.1847       0.3876   333.2
9.2500      -17369.6323  -17370.1762       0.5439   467.6
9.5000      -17369.7391  -17370.1381       0.3990   343.0
9.7500      -17369.8691  -17370.2099       0.3409   293.0
10.0000     -17369.8823  -17370.2178       0.3355   288.4
10.2500     -17369.9803  -17370.2175       0.2373   203.9
10.5000     -17369.9010  -17370.2255       0.3245   278.9
10.7500     -17369.9552  -17370.2045       0.2493   214.3
11.0000     -17369.8404  -17370.2616       0.4212   362.1
11.2500     -17369.8809  -17370.1879       0.3070   263.9
11.5000     -17369.7589  -17370.1382       0.3793   326.1
11.7500     -17369.4832  -17369.9366       0.4533   389.7
12.0000     -17369.8596  -17370.1705       0.3109   267.3
12.2500     -17369.9199  -17370.1540       0.2341   201.2
12.5000     -17369.8818  -17370.1538       0.2720   233.8
12.7500     -17369.9129  -17370.1026       0.1897   163.1
13.0000     -17369.7409  -17370.1558       0.4149   356.7
13.2500     -17369.6566  -17370.1602       0.5036   432.9
13.5000     -17369.9276  -17370.1769       0.2493   214.3
13.7500     -17369.9075  -17370.1771       0.2696   231.7
14.0000     -17369.7669  -17370.2164       0.4495   386.4
14.2500     -17369.6852  -17370.1764       0.4912   422.3
14.5000     -17369.8798  -17370.2148       0.3350   287.9
14.7500     -17369.8445  -17370.1093       0.2648   227.6
15.0000     -17369.7021  -17370.0475       0.3455   297.0
15.2500     -17369.7807  -17370.2395       0.4587   394.3
15.5000     -17369.8176  -17370.1721       0.3544   304.6
15.7500     -17370.0239  -17370.2733       0.2493   214.3
16.0000     -17369.7980  -17370.0213       0.2232   191.9
16.2500     -17370.0082  -17370.2535       0.2453   210.8
16.5000     -17369.9105  -17370.1937       0.2832   243.5
16.7500     -17369.9204  -17370.2443       0.3239   278.4
17.0000     -17369.9106  -17370.1859       0.2752   236.6
17.2500     -17369.7562  -17370.1667       0.4106   352.9
17.5000     -17369.9057  -17370.1595       0.2538   218.2
17.7500     -17369.7777  -17370.0954       0.3178   273.1
18.0000     -17369.9446  -17370.2130       0.2684   230.7
18.2500     -17369.7800  -17370.1689       0.3889   334.3
18.5000     -17369.7568  -17370.0724       0.3156   271.3
18.7500     -17369.5453  -17369.9382       0.3929   337.7
19.0000     -17370.0105  -17370.2595       0.2490   214.0
19.2500     -17369.7371  -17370.2400       0.5029   432.3
19.5000     -17369.6041  -17370.0038       0.3997   343.6
19.7500     -17369.8322  -17370.1255       0.2933   252.1
20.0000     -17369.6768  -17370.0261       0.3493   300.3
20.2500     -17369.8689  -17370.2133       0.3444   296.0
20.5000     -17369.6748  -17370.0358       0.3610   310.4
20.7500     -17369.7873  -17370.0259       0.2386   205.1
21.0000     -17370.1251  -17370.2751       0.1500   128.9
21.2500     -17369.9083  -17370.1817       0.2734   235.0
21.5000     -17369.9085  -17370.1924       0.2840   244.1
21.7500     -17369.9297  -17370.2104       0.2807   241.3
22.0000     -17369.8299  -17370.1458       0.3158   271.5
22.2500     -17369.7254  -17370.2362       0.5108   439.0
22.5000     -17369.6901  -17370.1782       0.4881   419.6
22.7500     -17369.6850  -17370.0522       0.3673   315.7
23.0000     -17369.8288  -17370.2110       0.3822   328.5
23.2500     -17369.7660  -17370.1600       0.3940   338.6
23.5000     -17369.9079  -17370.1793       0.2714   233.3
23.7500     -17369.5474  -17369.9529       0.4054   348.5
24.0000     -17369.6698  -17370.1540       0.4842   416.2
24.2500     -17369.9650  -17370.2050       0.2399   206.2
24.5000     -17369.5460  -17369.9666       0.4206   361.6
24.7500     -17369.9623  -17370.2195       0.2573   221.2
25.0000     -17369.8164  -17370.1345       0.3181   273.4
25.2500     -17369.8218  -17370.1309       0.3091   265.7
25.5000     -17369.5574  -17370.1004       0.5430   466.8
25.7500     -17369.7543  -17370.1182       0.3639   312.8
26.0000     -17369.9995  -17370.2262       0.2267   194.9
26.2500     -17369.8282  -17370.2038       0.3755   322.8
26.5000     -17369.6645  -17369.9985       0.3341   287.2
26.7500     -17369.7866  -17369.9798       0.1932   166.0
27.0000     -17369.7311  -17370.0898       0.3587   308.4
27.2500     -17369.7964  -17370.1388       0.3423   294.3
27.5000     -17369.9426  -17370.2849       0.3424   294.3
27.7500     -17369.8439  -17370.2239       0.3800   326.6
28.0000     -17369.6623  -17370.0474       0.3851   331.1
28.2500     -17370.0205  -17370.2616       0.2412   207.3
28.5000     -17369.8674  -17370.1859       0.3184   273.7
28.7500     -17369.9643  -17370.1661       0.2018   173.5
29.0000     -17369.7435  -17370.2599       0.5164   443.9
29.2500     -17369.7116  -17370.0801       0.3684   316.7
29.5000     -17369.8433  -17370.1684       0.3251   279.4
29.7500     -17369.8320  -17370.1634       0.3314   284.9
30.0000     -17369.7844  -17370.1223       0.3379   290.5
30.2500     -17369.9785  -17370.1370       0.1584   136.2
30.5000     -17369.8326  -17370.1919       0.3592   308.8
30.7500     -17369.8511  -17370.2029       0.3517   302.4
31.0000     -17369.9243  -17370.1691       0.2448   210.4
31.2500     -17369.8804  -17370.2229       0.3425   294.4
31.5000     -17369.9156  -17370.2401       0.3245   278.9
31.7500     -17369.9297  -17370.2020       0.2723   234.1
32.0000     -17369.8803  -17370.2107       0.3304   284.0
32.2500     -17369.7313  -17369.9805       0.2493   214.3
32.5000     -17369.8475  -17370.2225       0.3749   322.3
32.7500     -17369.9324  -17370.2441       0.3116   267.9
33.0000     -17369.7706  -17370.1534       0.3827   329.0
33.2500     -17369.7512  -17370.1363       0.3851   331.0
33.5000     -17369.7809  -17370.1793       0.3984   342.5
33.7500     -17369.8649  -17370.2946       0.4297   369.4
34.0000     -17369.5710  -17370.2711       0.7001   601.8
34.2500     -17369.8791  -17370.2100       0.3309   284.4
34.5000     -17369.9244  -17370.2224       0.2980   256.2
34.7500     -17370.0025  -17370.2938       0.2913   250.4
35.0000     -17369.7656  -17370.2432       0.4776   410.5
35.2500     -17369.9576  -17370.2262       0.2686   230.9
35.5000     -17369.8196  -17370.1281       0.3085   265.2
35.7500     -17369.8806  -17370.1598       0.2792   240.0
36.0000     -17370.0395  -17370.3072       0.2677   230.1
36.2500     -17370.0100  -17370.2461       0.2362   203.0
36.5000     -17369.7866  -17370.1104       0.3238   278.4
36.7500     -17369.8330  -17370.1157       0.2827   243.0
37.0000     -17369.8036  -17370.2825       0.4790   411.7
37.2500     -17369.7597  -17370.3073       0.5476   470.7
37.5000     -17369.7888  -17370.1311       0.3423   294.3
37.7500     -17369.7796  -17370.1558       0.3761   323.3
38.0000     -17369.7091  -17370.0839       0.3748   322.2
38.2500     -17370.0866  -17370.3397       0.2531   217.6
38.5000     -17369.8595  -17370.1090       0.2495   214.5
38.7500     -17369.8105  -17370.1930       0.3826   328.9
39.0000     -17369.5937  -17370.0908       0.4971   427.3
39.2500     -17369.7455  -17370.1684       0.4229   363.5
39.5000     -17369.9652  -17370.2394       0.2742   235.7
39.7500     -17369.8089  -17370.2062       0.3973   341.5
40.0000     -17369.7174  -17370.1699       0.4525   389.0
