Time[ps]      Etot[eV]     Epot[eV]     Ekin[eV]    T[K]
0.0000      -17369.9876  -17370.4124       0.4248   365.2
0.2500      -17369.8959  -17370.1992       0.3033   260.7
0.5000      -17369.7380  -17370.1149       0.3769   324.0
0.7500      -17370.0114  -17370.3426       0.3312   284.7
1.0000      -17369.7545  -17370.1927       0.4382   376.7
1.2500      -17369.9300  -17370.2819       0.3519   302.5
1.5000      -17369.6291  -17370.0874       0.4583   394.0
1.7500      -17369.4539  -17369.8726       0.4188   360.0
2.0000      -17369.5694  -17369.9672       0.3979   342.0
2.2500      -17369.6876  -17370.0750       0.3874   333.0
2.5000      -17369.9829  -17370.1371       0.1542   132.6
2.7500      -17369.8274  -17370.0419       0.2145   184.4
3.0000      -17369.9353  -17370.0761       0.1408   121.1
3.2500      -17369.8067  -17370.1029       0.2962   254.6
3.5000      -17369.6069  -17370.0307       0.4238   364.3
3.7500      -17369.7182  -17370.1148       0.3966   341.0
4.0000      -17369.6984  -17370.0923       0.3940   338.6
4.2500      -17369.5768  -17369.8742       0.2973   255.6
4.5000      -17369.7516  -17370.1202       0.3686   316.9
4.7500      -17369.4919  -17370.0616       0.5696   489.7
5.0000      -17369.5989  -17369.9506       0.3517   302.3
5.2500      -17369.5788  -17370.0426       0.4638   398.7
5.5000      -17369.6970  -17369.9984       0.3014   259.1
5.7500      -17369.8191  -17370.0413       0.2221   191.0
6.0000      -17369.6652  -17370.0830       0.4177   359.1
6.2500      -17369.7057  -17370.0087       0.3030   260.5
6.5000      -17369.6664  -17370.0711       0.4047   347.8
6.7500      -17369.4062  -17369.8862       0.4801   412.7
7.0000      -17369.6987  -17370.0978       0.3992   343.1
7.2500      -17369.6376  -17369.9757       0.3381   290.6
7.5000      -17369.6053  -17369.9510       0.3457   297.1
7.7500      -17369.6556  -17370.1079       0.4523   388.8
8.0000      -17369.6901  -17370.0455       0.3554   305.5
8.2500      -17369.6355  -17369.9637       0.3282   282.1
8.5000      -17369.5318  -17369.8870       0.3552   305.3
8.7500      -17369.4453  -17369.9661       0.5208   447.7
9.0000      -17369.6244  -17370.1593       0.5348   459.8
9.2500      -17369.6783  -17370.0119       0.3337   286.8
9.5000      -17369.5337  -17369.9915       0.4579   393.6
9.7500      -17369.5658  -17370.1758       0.6100   524.3
10.0000     -17369.7776  -17370.0526       0.2750   236.4
10.2500     -17369.6869  -17370.0873       0.4004   344.2
10.5000     -17369.8665  -17370.1276       0.2611   224.4
10.7500     -17369.9273  -17370.1576       0.2303   198.0
11.0000     -17369.7306  -17369.9491       0.2185   187.8
11.2500     -17369.8472  -17370.0767       0.2295   197.3
11.5000     -17369.4430  -17370.0361       0.5931   509.8
11.7500     -17369.6355  -17370.0262       0.3908   335.9
12.0000     -17369.7001  -17369.9933       0.2932   252.0
12.2500     -17369.7994  -17370.1217       0.3223   277.0
12.5000     -17369.6373  -17370.0506       0.4132   355.2
12.7500     -17369.6313  -17370.0182       0.3869   332.6
13.0000     -17369.6994  -17370.0284       0.3291   282.8
13.2500     -17369.7443  -17370.0037       0.2594   223.0
13.5000     -17369.6024  -17370.0125       0.4101   352.5
13.7500     -17369.4461  -17369.9269       0.4808   413.3
14.0000     -17369.7925  -17370.1150       0.3225   277.2
14.2500     -17369.6779  -17370.0393       0.3614   310.6
14.5000     -17369.6747  -17369.9938       0.3191   274.3
14.7500     -17369.7538  -17370.0649       0.3110   267.4
15.0000     -17369.3998  -17369.9721       0.5723   491.9
15.2500     -17369.7932  -17370.0934       0.3002   258.0
15.5000     -17369.6232  -17370.0186       0.3954   339.9
15.7500     -17369.7475  -17370.0783       0.3308   284.4
16.0000     -17369.8140  -17370.0707       0.2567   220.6
16.2500     -17369.9052  -17370.0919       0.1867   160.5
16.5000     -17369.7246  -17370.0812       0.3566   306.5
16.7500     -17369.4911  -17369.9187       0.4276   367.6
17.0000     -17369.5410  -17369.9023       0.3614   310.6
17.2500     -17369.5760  -17370.0268       0.4508   387.5
17.5000     -17369.6549  -17370.1030       0.4481   385.2
17.7500     -17369.7269  -17370.0542       0.3273   281.4
18.0000     -17369.8718  -17370.1301       0.2582   222.0
18.2500     -17369.8158  -17370.0682       0.2524   216.9
18.5000     -17369.6937  -17370.0597       0.3660   314.6
18.7500     -17369.8045  -17370.1263       0.3218   276.6
19.0000     -17369.7749  -17370.1206       0.3456   297.1
19.2500     -17369.8534  -17370.1385       0.2851   245.1
19.5000     -17369.7132  -17370.0604       0.3472   298.4
19.7500     -17369.9101  -17370.1407       0.2306   198.2
20.0000     -17369.6435  -17370.0683       0.4248   365.1
20.2500     -17369.8737  -17370.1217       0.2479   213.1
20.5000     -17369.9208  -17370.1656       0.2448   210.4
20.7500     -17369.4599  -17370.0913       0.6313   542.7
21.0000     -17369.9044  -17370.1551       0.2507   215.5
21.2500     -17369.7431  -17370.1096       0.3665   315.0
21.5000     -17369.6701  -17370.0386       0.3686   316.8
21.7500     -17369.9752  -17370.2080       0.2329   200.2
22.0000     -17369.8363  -17370.1231       0.2868   246.5
22.2500     -17369.6802  -17370.1429       0.4627   397.8
22.5000     -17369.7104  -17370.1724       0.4620   397.1
22.7500     -17369.6278  -17370.1188       0.4911   422.1
23.0000     -17370.0351  -17370.2170       0.1819   156.4
23.2500     -17369.7133  -17370.1116       0.3983   342.3
23.5000     -17369.8118  -17370.0715       0.2596   223.2
23.7500     -17369.6248  -17370.1328       0.5081   436.7
24.0000     -17369.6970  -17370.0007       0.3037   261.1
24.2500     -17369.7751  -17370.1795       0.4045   347.7
24.5000     -17369.9128  -17370.2003       0.2875   247.1
24.7500     -17369.7448  -17370.1654       0.4206   361.6
25.0000     -17369.7781  -17370.0984       0.3203   275.3
25.2500     -17369.7686  -17370.0468       0.2782   239.1
25.5000     -17369.8884  -17370.1204       0.2321   199.5
25.7500     -17369.9143  -17370.1649       0.2505   215.4
26.0000     -17369.7292  -17370.1205       0.3913   336.4
26.2500     -17369.8475  -17370.1895       0.3421   294.0
26.5000     -17369.6266  -17370.0691       0.4424   380.3
26.7500     -17369.7105  -17370.0466       0.3362   289.0
27.0000     -17369.6647  -17369.9663       0.3016   259.3
27.2500     -17369.7016  -17370.1006       0.3990   343.0
27.5000     -17369.5863  -17369.9445       0.3582   307.9
27.7500     -17369.8755  -17370.1274       0.2519   216.5
28.0000     -17369.6300  -17370.0298       0.3998   343.7
28.2500     -17369.7650  -17370.0875       0.3225   277.2
28.5000     -17369.7021  -17370.0608       0.3587   308.3
28.7500     -17369.7301  -17369.9778       0.2477   213.0
29.0000     -17369.8421  -17370.1011       0.2590   222.6
29.2500     -17369.7718  -17370.0145       0.2427   208.7
29.5000     -17369.8499  -17370.2358       0.3859   331.7
29.7500     -17369.5690  -17370.1112       0.5421   466.0
30.0000     -17369.8620  -17370.1499       0.2879   247.5
30.2500     -17369.7218  -17370.1266       0.4049   348.0
30.5000     -17369.9548  -17370.2204       0.2655   228.3
30.7500     -17369.9822  -17370.2388       0.2566   220.5
31.0000     -17369.9707  -17370.2729       0.3022   259.8
31.2500     -17369.8922  -17370.1988       0.3066   263.5
31.5000     -17369.8774  -17370.1782       0.3008   258.6
31.7500     -17369.9317  -17370.3197       0.3880   333.5
32.0000     -17369.8974  -17370.2081       0.3107   267.1
32.2500     -17369.8548  -17370.1306       0.2759   237.1
32.5000     -17369.8914  -17370.2097       0.3183   273.6
32.7500     -17369.8276  -17370.1126       0.2850   245.0
33.0000     -17369.9697  -17370.2454       0.2757   237.0
33.2500     -17369.8829  -17370.2142       0.3313   284.8
33.5000     -17369.6360  -17370.1536       0.5176   444.9
33.7500     -17369.8333  -17370.2117       0.3784   325.2
34.0000     -17369.7137  -17370.1798       0.4661   400.6
34.2500     -17369.6555  -17370.0856       0.4301   369.7
34.5000     -17369.8364  -17370.0398       0.2035   174.9
34.7500     -17369.9463  -17370.1637       0.2174   186.8
35.0000     -17370.0359  -17370.2715       0.2356   202.5
35.2500     -17369.8286  -17370.1682       0.3396   291.9
35.5000     -17369.6342  -17370.1183       0.4841   416.1
35.7500     -17369.7236  -17370.1906       0.4669   401.4
36.0000     -17369.9877  -17370.1547       0.1670   143.6
36.2500     -17369.5456  -17370.0662       0.5207   447.6
36.5000     -17369.8550  -17370.2848       0.4297   369.4
36.7500     -17369.8052  -17370.1571       0.3519   302.5
37.0000     -17369.8741  -17370.2118       0.3377   290.3
37.2500     -17369.5492  -17370.1663       0.6171   530.5
37.5000     -17369.7854  -17370.2417       0.4563   392.2
37.7500     -17369.6732  -17370.1028       0.4296   369.3
38.0000     -17369.8729  -17370.1966       0.3237   278.3
38.2500     -17369.8901  -17370.2853       0.3951   339.7
38.5000     -17369.7586  -17370.2014       0.4428   380.6
38.7500     -17369.7972  -17370.0673       0.2701   232.2
39.0000     -17369.7297  -17370.0876       0.3578   307.6
39.2500     -17369.8858  -17370.1854       0.2995   257.5
39.5000     -17369.8162  -17370.2068       0.3906   335.7
39.7500     -17369.4342  -17370.0061       0.5720   491.7
40.0000     -17370.0003  -17370.2759       0.2756   236.9
