Time[ps]      Etot[eV]     Epot[eV]     Ekin[eV]    T[K]
0.0000      -17370.2642  -17370.4124       0.1481   127.3
0.2500      -17369.9860  -17370.2379       0.2519   216.5
0.5000      -17369.7286  -17370.1573       0.4287   368.5
0.7500      -17369.9360  -17370.2626       0.3266   280.8
1.0000      -17369.8304  -17370.2586       0.4283   368.1
1.2500      -17369.9471  -17370.1952       0.2481   213.3
1.5000      -17369.7389  -17370.1035       0.3646   313.4
1.7500      -17369.7138  -17370.0115       0.2977   255.9
2.0000      -17369.4614  -17369.9542       0.4929   423.7
2.2500      -17369.8121  -17370.0328       0.2207   189.7
2.5000      -17369.6814  -17370.0026       0.3212   276.1
2.7500      -17369.5348  -17370.0674       0.5327   457.9
3.0000      -17369.5945  -17370.0899       0.4954   425.8
3.2500      -17369.7209  -17370.0446       0.3237   278.2
3.5000      -17369.8424  -17370.0956       0.2532   217.7
3.7500      -17369.5863  -17370.0022       0.4159   357.5
4.0000      -17369.4747  -17370.0786       0.6039   519.1
4.2500      -17369.5707  -17370.0273       0.4566   392.5
4.5000      -17369.6836  -17370.1007       0.4171   358.6
4.7500      -17369.7122  -17370.0474       0.3352   288.1
5.0000      -17369.7651  -17370.0582       0.2931   251.9
5.2500      -17369.6962  -17370.0779       0.3817   328.1
5.5000      -17370.0181  -17370.2665       0.2484   213.5
5.7500      -17370.0047  -17370.4105       0.4058   348.9
6.0000      -17370.0866  -17370.3919       0.3053   262.5
6.2500      -17370.0598  -17370.3435       0.2837   243.9
6.5000      -17370.1004  -17370.3574       0.2570   221.0
6.7500      -17370.0771  -17370.3226       0.2455   211.1
7.0000      -17370.1074  -17370.4283       0.3209   275.9
7.2500      -17370.0947  -17370.4423       0.3476   298.8
7.5000      -17369.9061  -17370.4820       0.5758   495.0
7.7500      -17370.1078  -17370.4370       0.3292   282.9
8.0000      -17370.0228  -17370.3946       0.3718   319.6
8.2500      -17370.0402  -17370.4316       0.3914   336.4
8.5000      -17369.9327  -17370.3931       0.4604   395.8
8.7500      -17370.1102  -17370.4597       0.3496   300.5
9.0000      -17369.8422  -17370.2807       0.4386   377.0
9.2500      -17370.1250  -17370.5157       0.3907   335.9
9.5000      -17370.1226  -17370.4358       0.3132   269.2
9.7500      -17370.1513  -17370.4904       0.3391   291.5
10.0000     -17370.0504  -17370.3989       0.3485   299.6
10.2500     -17369.7643  -17370.3380       0.5737   493.2
10.5000     -17370.0150  -17370.3632       0.3482   299.3
10.7500     -17369.7483  -17370.3476       0.5994   515.2
11.0000     -17370.1897  -17370.5420       0.3523   302.8
11.2500     -17370.0758  -17370.4579       0.3821   328.5
11.5000     -17370.0625  -17370.3748       0.3123   268.4
11.7500     -17370.1322  -17370.3806       0.2484   213.5
12.0000     -17369.9860  -17370.3245       0.3385   291.0
12.2500     -17370.0756  -17370.4552       0.3796   326.3
12.5000     -17370.0945  -17370.3527       0.2582   221.9
12.7500     -17370.0414  -17370.3830       0.3416   293.7
13.0000     -17370.1247  -17370.3949       0.2701   232.2
13.2500     -17370.0426  -17370.4253       0.3827   329.0
13.5000     -17370.1841  -17370.4863       0.3022   259.8
13.7500     -17370.1084  -17370.4876       0.3792   325.9
14.0000     -17370.0960  -17370.4156       0.3196   274.7
14.2500     -17370.1389  -17370.3785       0.2395   205.9
14.5000     -17370.0623  -17370.3704       0.3080   264.8
14.7500     -17370.2646  -17370.4582       0.1936   166.4
15.0000     -17370.2093  -17370.4744       0.2651   227.8
15.2500     -17369.9529  -17370.3474       0.3945   339.1
15.5000     -17369.9312  -17370.4318       0.5006   430.3
15.7500     -17370.1256  -17370.4381       0.3125   268.6
16.0000     -17370.0457  -17370.3511       0.3055   262.6
16.2500     -17369.9382  -17370.3752       0.4370   375.6
16.5000     -17370.0437  -17370.3133       0.2696   231.8
16.7500     -17370.1312  -17370.5068       0.3756   322.9
17.0000     -17369.8115  -17370.2097       0.3982   342.3
17.2500     -17370.1563  -17370.4429       0.2867   246.4
17.5000     -17370.1520  -17370.4097       0.2578   221.6
17.7500     -17370.1113  -17370.4379       0.3266   280.8
18.0000     -17370.0450  -17370.4239       0.3788   325.7
18.2500     -17370.1769  -17370.4759       0.2990   257.0
18.5000     -17369.9890  -17370.3680       0.3790   325.8
18.7500     -17369.9370  -17370.3764       0.4394   377.7
19.0000     -17370.1461  -17370.4409       0.2948   253.4
19.2500     -17370.1044  -17370.4806       0.3762   323.4
19.5000     -17370.0727  -17370.3128       0.2401   206.4
19.7500     -17370.1020  -17370.4858       0.3839   330.0
20.0000     -17370.2054  -17370.4827       0.2773   238.3
20.2500     -17370.1329  -17370.4296       0.2966   255.0
20.5000     -17369.8932  -17370.4427       0.5494   472.3
20.7500     -17370.1664  -17370.5594       0.3931   337.9
21.0000     -17369.9438  -17370.3401       0.3964   340.7
21.2500     -17369.8422  -17370.3548       0.5126   440.6
21.5000     -17369.9597  -17370.4220       0.4623   397.4
21.7500     -17370.1048  -17370.3201       0.2153   185.0
22.0000     -17370.0569  -17370.4107       0.3539   304.2
22.2500     -17370.1635  -17370.4254       0.2620   225.2
22.5000     -17369.9069  -17370.2484       0.3416   293.6
22.7500     -17369.9405  -17370.4098       0.4693   403.4
23.0000     -17369.9560  -17370.3426       0.3865   332.3
23.2500     -17370.2016  -17370.4061       0.2045   175.8
23.5000     -17369.9292  -17370.4393       0.5101   438.4
23.7500     -17369.9779  -17370.3062       0.3283   282.2
24.0000     -17370.2079  -17370.3728       0.1649   141.7
24.2500     -17370.1180  -17370.3821       0.2642   227.1
24.5000     -17369.8365  -17370.2661       0.4296   369.3
24.7500     -17369.9014  -17370.4416       0.5402   464.4
25.0000     -17370.0016  -17370.3343       0.3326   285.9
25.2500     -17370.0793  -17370.3799       0.3007   258.4
25.5000     -17370.0739  -17370.4689       0.3950   339.5
25.7500     -17370.1644  -17370.4733       0.3089   265.5
26.0000     -17370.3038  -17370.4820       0.1782   153.2
26.2500     -17370.2373  -17370.4694       0.2321   199.5
26.5000     -17369.8653  -17370.3212       0.4560   391.9
26.7500     -17369.9771  -17370.3996       0.4225   363.2
27.0000     -17369.8552  -17370.3757       0.5205   447.5
27.2500     -17369.9965  -17370.2966       0.3000   257.9
27.5000     -17370.1228  -17370.3711       0.2483   213.5
27.7500     -17369.7812  -17370.1024       0.3211   276.0
28.0000     -17369.9279  -17370.2508       0.3229   277.6
28.2500     -17370.0357  -17370.2598       0.2241   192.6
28.5000     -17369.9855  -17370.3373       0.3518   302.4
28.7500     -17370.0501  -17370.3814       0.3313   284.8
29.0000     -17370.0243  -17370.3492       0.3250   279.3
29.2500     -17370.0878  -17370.4887       0.4008   344.6
29.5000     -17370.2364  -17370.4320       0.1956   168.1
29.7500     -17370.0308  -17370.3122       0.2814   241.9
30.0000     -17369.9241  -17370.3479       0.4238   364.3
30.2500     -17369.9902  -17370.4918       0.5016   431.1
30.5000     -17370.0032  -17370.2558       0.2526   217.2
30.7500     -17369.7582  -17370.2694       0.5112   439.4
31.0000     -17369.9858  -17370.3540       0.3683   316.6
31.2500     -17369.9217  -17370.3953       0.4737   407.2
31.5000     -17369.9739  -17370.4262       0.4522   388.7
31.7500     -17370.0484  -17370.3857       0.3373   290.0
32.0000     -17369.8204  -17370.3645       0.5441   467.7
32.2500     -17369.9030  -17370.3959       0.4930   423.8
32.5000     -17369.7613  -17370.2476       0.4863   418.0
32.7500     -17369.9210  -17370.1257       0.2048   176.0
33.0000     -17369.9631  -17370.2654       0.3023   259.8
33.2500     -17369.9744  -17370.3477       0.3733   320.9
33.5000     -17370.1130  -17370.3714       0.2584   222.1
33.7500     -17370.0301  -17370.2759       0.2458   211.3
34.0000     -17370.1435  -17370.4358       0.2922   251.2
34.2500     -17370.0693  -17370.4675       0.3982   342.3
34.5000     -17370.0182  -17370.3189       0.3007   258.5
34.7500     -17370.1001  -17370.3143       0.2143   184.2
35.0000     -17370.0429  -17370.3680       0.3251   279.5
35.2500     -17370.0393  -17370.3900       0.3507   301.4
35.5000     -17370.0722  -17370.4335       0.3613   310.5
35.7500     -17369.9402  -17370.2645       0.3243   278.8
36.0000     -17370.0407  -17370.3519       0.3112   267.5
36.2500     -17370.1231  -17370.3914       0.2683   230.6
36.5000     -17370.1378  -17370.4585       0.3208   275.7
36.7500     -17370.0894  -17370.3733       0.2839   244.1
37.0000     -17370.0416  -17370.4038       0.3621   311.3
37.2500     -17369.8829  -17370.3431       0.4602   395.6
37.5000     -17369.9221  -17370.3351       0.4130   355.0
37.7500     -17369.8155  -17370.2754       0.4600   395.4
38.0000     -17370.0012  -17370.3299       0.3287   282.6
38.2500     -17370.1463  -17370.3653       0.2190   188.2
38.5000     -17369.9816  -17370.3576       0.3760   323.2
38.7500     -17369.9808  -17370.3282       0.3474   298.6
39.0000     -17370.1608  -17370.4573       0.2965   254.9
39.2500     -17370.0923  -17370.3679       0.2756   236.9
39.5000     -17370.0601  -17370.2673       0.2072   178.1
39.7500     -17369.8261  -17370.4176       0.5915   508.5
40.0000     -17369.9669  -17370.3322       0.3653   314.0
