Time[ps]      Etot[eV]     Epot[eV]     Ekin[eV]    T[K]
0.0000      -17370.0365  -17370.4124       0.3759   323.1
0.2500      -17369.8312  -17370.2124       0.3812   327.6
0.5000      -17369.8522  -17370.2203       0.3681   316.4
0.7500      -17369.7781  -17370.2721       0.4940   424.6
1.0000      -17369.8886  -17370.1848       0.2962   254.6
1.2500      -17369.4505  -17369.9870       0.5365   461.2
1.5000      -17369.5978  -17370.0517       0.4540   390.2
1.7500      -17369.6444  -17369.8908       0.2464   211.8
2.0000      -17369.8383  -17370.0903       0.2520   216.7
2.2500      -17369.7389  -17370.0393       0.3004   258.2
2.5000      -17369.9980  -17370.2391       0.2411   207.3
2.7500      -17369.9413  -17370.1732       0.2319   199.4
3.0000      -17369.6712  -17370.1034       0.4322   371.5
3.2500      -17369.7588  -17370.2337       0.4749   408.2
3.5000      -17369.9230  -17370.4645       0.5415   465.5
3.7500      -17370.0718  -17370.4339       0.3620   311.2
4.0000      -17369.9606  -17370.3650       0.4044   347.6
4.2500      -17369.8461  -17370.4016       0.5556   477.6
4.5000      -17370.0827  -17370.4402       0.3575   307.3
4.7500      -17370.0201  -17370.2910       0.2709   232.9
5.0000      -17370.1134  -17370.4173       0.3040   261.3
5.2500      -17370.0568  -17370.4215       0.3647   313.5
5.5000      -17370.0225  -17370.4245       0.4020   345.5
5.7500      -17369.9011  -17370.4167       0.5155   443.1
6.0000      -17370.1148  -17370.4076       0.2928   251.7
6.2500      -17370.0467  -17370.3697       0.3230   277.6
6.5000      -17370.0389  -17370.4572       0.4184   359.6
6.7500      -17370.1026  -17370.4207       0.3181   273.4
7.0000      -17370.0207  -17370.3229       0.3022   259.8
7.2500      -17370.0401  -17370.3820       0.3419   293.9
7.5000      -17369.9337  -17370.3220       0.3882   333.7
7.7500      -17369.9601  -17370.3500       0.3899   335.2
8.0000      -17369.7950  -17370.1585       0.3635   312.5
8.2500      -17370.0136  -17370.3987       0.3851   331.1
8.5000      -17370.0095  -17370.3214       0.3119   268.1
8.7500      -17370.0695  -17370.3712       0.3018   259.4
9.0000      -17370.0323  -17370.4288       0.3965   340.8
9.2500      -17369.9303  -17370.3006       0.3704   318.4
9.5000      -17369.9132  -17370.3575       0.4443   381.9
9.7500      -17369.8552  -17370.2910       0.4358   374.6
10.0000     -17370.1020  -17370.5030       0.4011   344.8
10.2500     -17369.6155  -17370.2389       0.6234   535.9
10.5000     -17370.1356  -17370.4229       0.2873   247.0
10.7500     -17370.2113  -17370.5171       0.3058   262.9
11.0000     -17370.0831  -17370.3455       0.2624   225.6
11.2500     -17369.8457  -17370.2585       0.4128   354.9
11.5000     -17369.9375  -17370.4299       0.4924   423.3
11.7500     -17370.1009  -17370.3536       0.2527   217.2
12.0000     -17369.8938  -17370.2858       0.3920   336.9
12.2500     -17370.2190  -17370.4034       0.1844   158.5
12.5000     -17370.1255  -17370.3447       0.2192   188.4
12.7500     -17369.9529  -17370.2146       0.2617   225.0
13.0000     -17370.0095  -17370.3755       0.3661   314.7
13.2500     -17370.1845  -17370.4681       0.2835   243.7
13.5000     -17370.0248  -17370.3558       0.3310   284.5
13.7500     -17370.0559  -17370.4616       0.4057   348.8
14.0000     -17370.0315  -17370.4962       0.4648   399.5
14.2500     -17369.9962  -17370.3663       0.3701   318.1
14.5000     -17369.9758  -17370.3483       0.3725   320.2
14.7500     -17369.9813  -17370.3498       0.3685   316.8
15.0000     -17370.0797  -17370.3840       0.3042   261.5
15.2500     -17370.0935  -17370.3457       0.2522   216.8
15.5000     -17370.2218  -17370.4967       0.2749   236.3
15.7500     -17369.8965  -17370.3289       0.4323   371.6
16.0000     -17369.8873  -17370.3792       0.4919   422.8
16.2500     -17369.9242  -17370.3927       0.4685   402.7
16.5000     -17369.9915  -17370.3814       0.3899   335.1
16.7500     -17369.8604  -17370.3459       0.4855   417.3
17.0000     -17370.0708  -17370.4381       0.3673   315.7
17.2500     -17370.1041  -17370.4219       0.3179   273.2
17.5000     -17370.0785  -17370.4500       0.3715   319.3
17.7500     -17370.1748  -17370.4940       0.3192   274.4
18.0000     -17369.8138  -17370.2408       0.4270   367.0
18.2500     -17370.0653  -17370.4717       0.4063   349.3
18.5000     -17370.2614  -17370.4663       0.2049   176.1
18.7500     -17370.1954  -17370.4382       0.2428   208.7
19.0000     -17369.9905  -17370.2977       0.3072   264.1
19.2500     -17369.9426  -17370.2466       0.3039   261.3
19.5000     -17370.0984  -17370.4920       0.3935   338.3
19.7500     -17369.7814  -17370.1656       0.3842   330.3
20.0000     -17369.9577  -17370.3646       0.4069   349.8
20.2500     -17370.0330  -17370.3969       0.3639   312.8
20.5000     -17369.9663  -17370.3147       0.3483   299.4
20.7500     -17370.0482  -17370.3181       0.2699   232.0
21.0000     -17370.2170  -17370.4097       0.1927   165.7
21.2500     -17370.0557  -17370.4831       0.4274   367.4
21.5000     -17370.0441  -17370.4430       0.3989   342.9
21.7500     -17370.0416  -17370.3977       0.3561   306.1
22.0000     -17370.0431  -17370.4477       0.4046   347.8
22.2500     -17370.0704  -17370.4194       0.3490   300.0
22.5000     -17369.9539  -17370.3363       0.3823   328.7
22.7500     -17370.1529  -17370.4257       0.2728   234.5
23.0000     -17370.1076  -17370.3678       0.2602   223.7
23.2500     -17369.8802  -17370.3222       0.4420   380.0
23.5000     -17370.2279  -17370.4091       0.1812   155.8
23.7500     -17369.8418  -17370.2827       0.4408   379.0
24.0000     -17370.0336  -17370.3060       0.2723   234.1
24.2500     -17370.0697  -17370.4104       0.3407   292.9
24.5000     -17369.9517  -17370.4433       0.4916   422.6
24.7500     -17370.1456  -17370.4804       0.3348   287.8
25.0000     -17369.9005  -17370.2699       0.3695   317.6
25.2500     -17370.0900  -17370.4240       0.3340   287.1
25.5000     -17369.9278  -17370.4324       0.5046   433.8
25.7500     -17370.0871  -17370.4483       0.3612   310.5
26.0000     -17370.0984  -17370.4484       0.3499   300.8
26.2500     -17370.1673  -17370.4835       0.3162   271.8
26.5000     -17370.0714  -17370.3937       0.3223   277.1
26.7500     -17370.0594  -17370.3113       0.2519   216.6
27.0000     -17370.2120  -17370.4606       0.2486   213.7
27.2500     -17370.2233  -17370.4881       0.2648   227.6
27.5000     -17369.8524  -17370.2967       0.4443   381.9
27.7500     -17370.2042  -17370.4099       0.2057   176.8
28.0000     -17369.9900  -17370.3571       0.3671   315.5
28.2500     -17370.0344  -17370.4418       0.4075   350.2
28.5000     -17369.9606  -17370.3151       0.3545   304.8
28.7500     -17370.0805  -17370.4117       0.3312   284.7
29.0000     -17370.2406  -17370.4327       0.1921   165.1
29.2500     -17370.1005  -17370.3571       0.2566   220.6
29.5000     -17370.1033  -17370.3883       0.2850   245.0
29.7500     -17370.0721  -17370.4064       0.3343   287.4
30.0000     -17370.2335  -17370.4422       0.2087   179.4
30.2500     -17370.1220  -17370.4598       0.3378   290.4
30.5000     -17370.1162  -17370.3911       0.2749   236.3
30.7500     -17369.9883  -17370.3167       0.3284   282.3
31.0000     -17369.9164  -17370.3481       0.4316   371.0
31.2500     -17369.7234  -17370.3362       0.6128   526.8
31.5000     -17369.8971  -17370.3884       0.4912   422.2
31.7500     -17369.8094  -17370.2191       0.4097   352.2
32.0000     -17370.1032  -17370.4671       0.3639   312.8
32.2500     -17369.9388  -17370.4637       0.5249   451.2
32.5000     -17370.0801  -17370.3766       0.2966   254.9
32.7500     -17370.0647  -17370.3328       0.2681   230.4
33.0000     -17369.7126  -17370.3890       0.6764   581.5
33.2500     -17370.0545  -17370.3787       0.3242   278.7
33.5000     -17370.0035  -17370.3155       0.3120   268.2
33.7500     -17370.0283  -17370.2570       0.2287   196.6
34.0000     -17369.9155  -17370.2163       0.3008   258.6
34.2500     -17369.6320  -17370.1836       0.5517   474.2
34.5000     -17369.8260  -17370.1909       0.3649   313.7
34.7500     -17370.0430  -17370.3615       0.3185   273.8
35.0000     -17370.0624  -17370.4386       0.3763   323.5
35.2500     -17369.9170  -17370.2484       0.3314   284.9
35.5000     -17370.0593  -17370.3696       0.3102   266.7
35.7500     -17370.0532  -17370.5029       0.4497   386.6
36.0000     -17370.1161  -17370.4303       0.3143   270.1
36.2500     -17370.0543  -17370.3610       0.3067   263.7
36.5000     -17370.0569  -17370.4540       0.3971   341.4
36.7500     -17369.7514  -17370.2353       0.4839   415.9
37.0000     -17370.0429  -17370.4180       0.3752   322.5
37.2500     -17370.2303  -17370.4481       0.2178   187.2
37.5000     -17370.1688  -17370.4799       0.3110   267.4
37.7500     -17370.0023  -17370.3892       0.3869   332.6
38.0000     -17370.1277  -17370.3724       0.2447   210.3
38.2500     -17370.0064  -17370.3793       0.3728   320.5
38.5000     -17370.0558  -17370.3731       0.3173   272.7
38.7500     -17370.1037  -17370.4823       0.3786   325.4
39.0000     -17370.1111  -17370.2649       0.1538   132.2
39.2500     -17369.9780  -17370.3083       0.3303   283.9
39.5000     -17370.0173  -17370.3304       0.3132   269.2
39.7500     -17370.2208  -17370.4243       0.2035   174.9
40.0000     -17369.9922  -17370.3866       0.3944   339.1
