Time[ps]      Etot[eV]     Epot[eV]     Ekin[eV]    T[K]
0.0000      -17370.0962  -17370.4124       0.3161   271.8
0.2500      -17369.8031  -17370.2398       0.4367   375.4
0.5000      -17370.1374  -17370.3580       0.2205   189.6
0.7500      -17369.9907  -17370.3515       0.3608   310.2
1.0000      -17369.7763  -17370.1790       0.4027   346.1
1.2500      -17369.6835  -17370.1242       0.4407   378.8
1.5000      -17369.5685  -17370.0440       0.4755   408.7
1.7500      -17369.7817  -17370.0656       0.2839   244.0
2.0000      -17369.5697  -17370.0677       0.4980   428.1
2.2500      -17370.1158  -17370.5653       0.4495   386.4
2.5000      -17370.5929  -17370.9096       0.3167   272.2
2.7500      -17370.7707  -17371.1117       0.3409   293.1
3.0000      -17370.8969  -17371.0998       0.2029   174.4
3.2500      -17370.6472  -17371.0698       0.4225   363.2
3.5000      -17370.6835  -17370.9667       0.2832   243.4
3.7500      -17370.7289  -17371.0965       0.3677   316.0
4.0000      -17370.7209  -17371.0549       0.3340   287.1
4.2500      -17370.7517  -17371.0085       0.2568   220.7
4.5000      -17370.6918  -17370.9821       0.2903   249.6
4.7500      -17370.7771  -17371.0823       0.3051   262.3
5.0000      -17370.7463  -17371.1756       0.4293   369.1
5.2500      -17370.6434  -17371.0907       0.4473   384.5
5.5000      -17370.2973  -17371.0683       0.7710   662.7
5.7500      -17370.9124  -17371.0735       0.1611   138.5
6.0000      -17370.6823  -17371.1277       0.4453   382.8
6.2500      -17370.7695  -17371.0218       0.2523   216.9
6.5000      -17370.4785  -17370.9155       0.4370   375.6
6.7500      -17370.8028  -17371.1809       0.3781   325.0
7.0000      -17370.5746  -17370.9499       0.3753   322.6
7.2500      -17370.6245  -17371.0210       0.3965   340.8
7.5000      -17370.5043  -17371.0095       0.5052   434.2
7.7500      -17370.8656  -17371.2211       0.3555   305.6
8.0000      -17370.7015  -17371.0214       0.3199   275.0
8.2500      -17370.5675  -17370.9795       0.4121   354.2
8.5000      -17370.7583  -17370.9740       0.2157   185.4
8.7500      -17370.5631  -17370.9186       0.3555   305.6
9.0000      -17370.6591  -17370.8567       0.1977   169.9
9.2500      -17370.5316  -17371.0059       0.4743   407.7
9.5000      -17370.6689  -17371.0452       0.3763   323.5
9.7500      -17370.6243  -17371.0363       0.4120   354.2
10.0000     -17370.9350  -17371.2274       0.2924   251.3
10.2500     -17370.8989  -17371.0715       0.1726   148.4
10.5000     -17370.6982  -17371.0301       0.3319   285.3
10.7500     -17370.6266  -17370.9640       0.3374   290.0
11.0000     -17370.6287  -17371.1140       0.4853   417.2
11.2500     -17370.5470  -17371.0725       0.5256   451.8
11.5000     -17370.6966  -17371.0806       0.3840   330.1
11.7500     -17370.6955  -17371.0200       0.3245   278.9
12.0000     -17370.7712  -17371.2057       0.4345   373.5
12.2500     -17370.6384  -17371.0132       0.3748   322.2
12.5000     -17370.7639  -17371.0249       0.2610   224.4
12.7500     -17370.6151  -17370.9712       0.3561   306.1
13.0000     -17370.7281  -17371.0560       0.3279   281.9
13.2500     -17370.8670  -17371.1201       0.2532   217.6
13.5000     -17370.6222  -17371.0000       0.3778   324.8
13.7500     -17370.8342  -17371.1247       0.2905   249.7
14.0000     -17370.6902  -17371.0292       0.3389   291.3
14.2500     -17370.6558  -17371.0354       0.3796   326.3
14.5000     -17370.5561  -17370.8998       0.3436   295.4
14.7500     -17370.3717  -17370.8295       0.4578   393.5
15.0000     -17370.5459  -17371.0676       0.5217   448.4
15.2500     -17370.3590  -17370.7725       0.4135   355.4
15.5000     -17370.4970  -17370.7940       0.2970   255.3
15.7500     -17370.6442  -17371.0712       0.4270   367.0
16.0000     -17370.7824  -17371.0828       0.3003   258.2
16.2500     -17370.5489  -17370.8222       0.2733   234.9
16.5000     -17370.5931  -17371.0991       0.5061   435.0
16.7500     -17370.4170  -17370.8863       0.4694   403.5
17.0000     -17370.5261  -17370.9086       0.3825   328.8
17.2500     -17370.5558  -17370.8297       0.2739   235.5
17.5000     -17370.4050  -17370.8622       0.4572   393.0
17.7500     -17370.5286  -17370.8641       0.3356   288.4
18.0000     -17370.3717  -17370.8799       0.5082   436.8
18.2500     -17370.5793  -17371.0587       0.4793   412.0
18.5000     -17370.7295  -17370.9959       0.2664   229.0
18.7500     -17370.4880  -17371.0109       0.5228   449.4
19.0000     -17370.5769  -17370.9803       0.4034   346.8
19.2500     -17370.6450  -17371.0107       0.3657   314.3
19.5000     -17370.6215  -17371.0564       0.4349   373.8
19.7500     -17370.5938  -17370.9203       0.3265   280.7
20.0000     -17370.7192  -17370.9581       0.2389   205.4
20.2500     -17370.7333  -17370.8876       0.1544   132.7
20.5000     -17370.7875  -17371.0938       0.3063   263.3
20.7500     -17370.8131  -17371.0872       0.2741   235.6
21.0000     -17370.6610  -17370.9951       0.3341   287.2
21.2500     -17370.7542  -17371.1014       0.3472   298.5
21.5000     -17370.7793  -17370.9621       0.1828   157.2
21.7500     -17370.7738  -17371.1055       0.3317   285.1
22.0000     -17370.9130  -17371.2000       0.2870   246.7
22.2500     -17370.7053  -17371.0599       0.3546   304.8
22.5000     -17370.5558  -17370.8715       0.3157   271.4
22.7500     -17370.6200  -17370.9134       0.2935   252.3
23.0000     -17370.9357  -17371.1798       0.2441   209.8
23.2500     -17370.6912  -17370.9409       0.2497   214.6
23.5000     -17370.7490  -17371.0812       0.3322   285.6
23.7500     -17370.6731  -17371.0611       0.3880   333.5
24.0000     -17370.6556  -17370.8582       0.2026   174.2
24.2500     -17370.6963  -17371.0772       0.3809   327.4
24.5000     -17370.8727  -17371.0628       0.1901   163.4
24.7500     -17370.7792  -17371.0295       0.2503   215.2
25.0000     -17370.6841  -17371.0155       0.3314   284.8
25.2500     -17370.8193  -17371.0954       0.2761   237.3
25.5000     -17370.7216  -17371.0800       0.3584   308.1
25.7500     -17370.5217  -17370.9079       0.3861   331.9
26.0000     -17370.5852  -17370.9607       0.3755   322.8
26.2500     -17370.9295  -17371.0927       0.1632   140.3
26.5000     -17370.5816  -17371.0162       0.4346   373.6
26.7500     -17370.8282  -17371.0697       0.2415   207.6
27.0000     -17370.7371  -17371.0962       0.3591   308.7
27.2500     -17370.4259  -17370.9975       0.5716   491.4
27.5000     -17370.7838  -17371.1957       0.4119   354.1
27.7500     -17370.8658  -17371.0780       0.2122   182.4
28.0000     -17370.8348  -17371.1010       0.2662   228.8
28.2500     -17370.7276  -17371.0842       0.3566   306.5
28.5000     -17370.5134  -17370.8905       0.3771   324.2
28.7500     -17370.7041  -17371.1339       0.4298   369.4
29.0000     -17370.7815  -17371.0467       0.2652   228.0
29.2500     -17370.8033  -17371.1135       0.3103   266.7
29.5000     -17370.6522  -17371.0900       0.4378   376.3
29.7500     -17370.6492  -17371.0927       0.4436   381.3
30.0000     -17371.0205  -17371.2463       0.2258   194.1
30.2500     -17370.7512  -17371.0943       0.3431   294.9
30.5000     -17370.8245  -17371.0836       0.2591   222.7
30.7500     -17370.4771  -17371.0275       0.5504   473.1
31.0000     -17370.6588  -17370.9906       0.3318   285.2
31.2500     -17370.8407  -17371.0748       0.2341   201.2
31.5000     -17370.5623  -17370.8524       0.2900   249.3
31.7500     -17370.7455  -17371.0977       0.3522   302.7
32.0000     -17370.6870  -17370.9528       0.2658   228.5
32.2500     -17370.9743  -17371.1339       0.1596   137.2
32.5000     -17370.5877  -17370.9922       0.4045   347.7
32.7500     -17370.5428  -17370.9443       0.4016   345.2
33.0000     -17370.7337  -17371.1083       0.3746   322.0
33.2500     -17370.8206  -17371.1655       0.3449   296.5
33.5000     -17370.7537  -17371.0295       0.2758   237.1
33.7500     -17370.7047  -17370.9767       0.2720   233.8
34.0000     -17370.6171  -17371.0410       0.4239   364.4
34.2500     -17370.6458  -17371.1164       0.4706   404.5
34.5000     -17370.6478  -17370.9780       0.3303   283.9
34.7500     -17370.8713  -17371.0473       0.1759   151.2
35.0000     -17370.7462  -17371.0795       0.3333   286.5
35.2500     -17370.4897  -17370.9436       0.4539   390.2
35.5000     -17370.6072  -17371.0643       0.4570   392.9
35.7500     -17370.5606  -17371.0160       0.4554   391.4
36.0000     -17370.5294  -17371.0563       0.5269   452.9
36.2500     -17370.5490  -17370.9660       0.4171   358.5
36.5000     -17370.7600  -17371.0138       0.2538   218.2
36.7500     -17370.8193  -17371.1327       0.3134   269.4
37.0000     -17370.6600  -17371.0200       0.3599   309.4
37.2500     -17370.6536  -17370.9067       0.2531   217.6
37.5000     -17370.7205  -17371.0043       0.2838   244.0
37.7500     -17370.8085  -17371.0871       0.2786   239.5
38.0000     -17370.9384  -17371.2428       0.3045   261.7
38.2500     -17370.6599  -17371.0865       0.4266   366.7
38.5000     -17370.7226  -17371.0624       0.3399   292.1
38.7500     -17370.5276  -17370.9391       0.4116   353.8
39.0000     -17370.5888  -17371.0491       0.4602   395.6
39.2500     -17370.7526  -17371.0252       0.2726   234.3
39.5000     -17370.5393  -17370.8859       0.3466   297.9
39.7500     -17370.7790  -17371.0240       0.2450   210.6
40.0000     -17370.6375  -17370.9701       0.3326   285.9
