Time[ps]      Etot[eV]     Epot[eV]     Ekin[eV]    T[K]
0.0000      -17369.9722  -17370.4124       0.4402   378.4
0.2500      -17369.8544  -17370.2395       0.3851   331.0
0.5000      -17369.8489  -17370.1311       0.2822   242.6
0.7500      -17369.9122  -17370.3366       0.4243   364.8
1.0000      -17369.8312  -17370.2444       0.4132   355.2
1.2500      -17369.9145  -17370.1098       0.1953   167.9
1.5000      -17369.7745  -17370.0685       0.2939   252.7
1.7500      -17369.8721  -17370.1956       0.3235   278.1
2.0000      -17370.3312  -17370.6062       0.2750   236.4
2.2500      -17370.7284  -17370.9652       0.2368   203.5
2.5000      -17370.9917  -17371.3675       0.3758   323.0
2.7500      -17371.0650  -17371.3723       0.3074   264.2
3.0000      -17370.9236  -17371.3733       0.4497   386.5
3.2500      -17371.0885  -17371.2952       0.2066   177.6
3.5000      -17370.8755  -17371.3141       0.4386   377.0
3.7500      -17370.9215  -17371.2667       0.3452   296.8
4.0000      -17370.6670  -17371.1548       0.4878   419.3
4.2500      -17371.0766  -17371.2949       0.2183   187.6
4.5000      -17371.1064  -17371.4192       0.3128   268.9
4.7500      -17371.0276  -17371.3962       0.3686   316.8
5.0000      -17370.9473  -17371.2947       0.3475   298.7
5.2500      -17370.9692  -17371.2191       0.2499   214.8
5.5000      -17370.9614  -17371.2926       0.3312   284.7
5.7500      -17371.1246  -17371.3499       0.2253   193.7
6.0000      -17371.0722  -17371.3363       0.2642   227.1
6.2500      -17371.0328  -17371.3412       0.3084   265.1
6.5000      -17370.9994  -17371.2929       0.2935   252.3
6.7500      -17371.0187  -17371.3726       0.3539   304.2
7.0000      -17370.9422  -17371.4118       0.4696   403.7
7.2500      -17370.9317  -17371.3955       0.4638   398.7
7.5000      -17371.0511  -17371.3979       0.3468   298.1
7.7500      -17370.9901  -17371.3630       0.3729   320.5
8.0000      -17370.9124  -17371.3436       0.4312   370.6
8.2500      -17371.0776  -17371.1978       0.1203   103.4
8.5000      -17370.9813  -17371.3802       0.3989   342.9
8.7500      -17370.9124  -17371.2261       0.3138   269.7
9.0000      -17371.0110  -17371.3271       0.3161   271.7
9.2500      -17370.8469  -17371.3282       0.4812   413.7
9.5000      -17371.1668  -17371.3906       0.2239   192.4
9.7500      -17371.0759  -17371.3527       0.2768   237.9
10.0000     -17371.1459  -17371.3427       0.1968   169.2
10.2500     -17370.9965  -17371.3508       0.3543   304.6
10.5000     -17371.0418  -17371.3016       0.2598   223.3
10.7500     -17370.9876  -17371.3442       0.3566   306.5
11.0000     -17370.9807  -17371.3677       0.3870   332.6
11.2500     -17371.0518  -17371.4306       0.3788   325.6
11.5000     -17370.9851  -17371.5238       0.5387   463.1
11.7500     -17370.9063  -17371.2791       0.3728   320.4
12.0000     -17370.6800  -17371.0658       0.3857   331.6
12.2500     -17371.1549  -17371.3480       0.1931   166.0
12.5000     -17371.0932  -17371.3193       0.2261   194.4
12.7500     -17371.1160  -17371.4485       0.3325   285.8
13.0000     -17370.8891  -17371.2982       0.4092   351.7
13.2500     -17370.8333  -17371.1464       0.3130   269.1
13.5000     -17370.8414  -17371.3731       0.5316   457.0
13.7500     -17371.0618  -17371.4535       0.3917   336.7
14.0000     -17370.9261  -17371.2601       0.3340   287.1
14.2500     -17371.0813  -17371.3231       0.2418   207.8
14.5000     -17370.9645  -17371.2401       0.2756   236.9
14.7500     -17370.8842  -17371.2481       0.3638   312.8
15.0000     -17371.0254  -17371.2892       0.2639   226.8
15.2500     -17370.6805  -17371.1441       0.4637   398.6
15.5000     -17370.8022  -17371.2232       0.4210   361.9
15.7500     -17370.8799  -17371.1958       0.3159   271.5
16.0000     -17370.9283  -17371.2804       0.3521   302.6
16.2500     -17370.8433  -17371.1661       0.3228   277.5
16.5000     -17370.8767  -17371.2174       0.3407   292.9
16.7500     -17370.8698  -17371.1042       0.2343   201.4
17.0000     -17371.0436  -17371.3419       0.2982   256.4
17.2500     -17370.9027  -17371.2202       0.3176   273.0
17.5000     -17371.1015  -17371.4631       0.3617   310.9
17.7500     -17370.8728  -17371.1861       0.3133   269.3
18.0000     -17371.0217  -17371.2759       0.2541   218.5
18.2500     -17370.9109  -17371.2305       0.3195   274.7
18.5000     -17370.7349  -17371.2424       0.5075   436.2
18.7500     -17370.8884  -17371.3306       0.4422   380.1
19.0000     -17370.8846  -17371.3017       0.4171   358.6
19.2500     -17370.8057  -17371.3332       0.5275   453.4
19.5000     -17370.8763  -17371.3518       0.4755   408.7
19.7500     -17370.9479  -17371.3645       0.4166   358.1
20.0000     -17370.9955  -17371.2910       0.2954   254.0
20.2500     -17370.8589  -17371.2586       0.3997   343.6
20.5000     -17371.0169  -17371.2902       0.2733   234.9
20.7500     -17370.9518  -17371.1184       0.1666   143.2
21.0000     -17370.8867  -17371.2897       0.4030   346.4
21.2500     -17370.8497  -17371.0410       0.1913   164.4
21.5000     -17370.9115  -17371.2093       0.2977   255.9
21.7500     -17371.0654  -17371.2968       0.2314   198.9
22.0000     -17371.0155  -17371.2212       0.2058   176.9
22.2500     -17370.8524  -17371.2317       0.3794   326.1
22.5000     -17370.8872  -17371.2139       0.3267   280.8
22.7500     -17370.6374  -17371.1122       0.4748   408.1
23.0000     -17370.8927  -17371.2259       0.3332   286.4
23.2500     -17370.9197  -17371.3198       0.4001   343.9
23.5000     -17370.7403  -17371.2973       0.5570   478.8
23.7500     -17370.8563  -17371.2252       0.3689   317.1
24.0000     -17371.0041  -17371.3080       0.3039   261.2
24.2500     -17370.8772  -17371.2939       0.4167   358.2
24.5000     -17370.8799  -17371.1973       0.3173   272.8
24.7500     -17371.0561  -17371.2998       0.2437   209.5
25.0000     -17370.6018  -17370.8310       0.2292   197.0
25.2500     -17371.0071  -17371.3105       0.3035   260.8
25.5000     -17370.7868  -17371.2243       0.4375   376.1
25.7500     -17370.9120  -17371.1616       0.2496   214.6
26.0000     -17370.8277  -17371.2649       0.4372   375.8
26.2500     -17370.8652  -17371.2440       0.3789   325.7
26.5000     -17370.7225  -17371.0138       0.2913   250.4
26.7500     -17370.9586  -17371.2519       0.2933   252.1
27.0000     -17370.9289  -17371.2316       0.3028   260.3
27.2500     -17371.1273  -17371.2457       0.1184   101.8
27.5000     -17371.0915  -17371.3922       0.3007   258.5
27.7500     -17370.8117  -17371.2220       0.4103   352.7
28.0000     -17370.7961  -17371.1407       0.3446   296.2
28.2500     -17371.1112  -17371.3550       0.2438   209.6
28.5000     -17371.1783  -17371.3688       0.1905   163.7
28.7500     -17371.0468  -17371.3858       0.3390   291.4
29.0000     -17370.9710  -17371.3912       0.4202   361.2
29.2500     -17371.0483  -17371.2702       0.2219   190.8
29.5000     -17370.7944  -17371.0463       0.2519   216.5
29.7500     -17370.6848  -17371.1788       0.4940   424.6
30.0000     -17371.0440  -17371.3379       0.2939   252.6
30.2500     -17370.8998  -17371.1656       0.2658   228.5
30.5000     -17370.9326  -17371.3388       0.4062   349.2
30.7500     -17370.8455  -17371.2572       0.4116   353.8
31.0000     -17371.1730  -17371.4386       0.2655   228.3
31.2500     -17370.6410  -17371.1662       0.5252   451.5
31.5000     -17371.0363  -17371.3328       0.2964   254.8
31.7500     -17370.8450  -17371.4076       0.5626   483.6
32.0000     -17371.0442  -17371.3880       0.3438   295.5
32.2500     -17370.9831  -17371.2035       0.2204   189.4
32.5000     -17370.8929  -17371.2823       0.3895   334.8
32.7500     -17370.7610  -17371.2318       0.4707   404.7
33.0000     -17370.8205  -17371.1798       0.3593   308.8
33.2500     -17370.9725  -17371.2605       0.2880   247.6
33.5000     -17370.7196  -17371.0968       0.3772   324.2
33.7500     -17370.7606  -17371.1268       0.3662   314.8
34.0000     -17370.9306  -17371.2731       0.3425   294.4
34.2500     -17370.8413  -17371.2036       0.3623   311.4
34.5000     -17371.0918  -17371.3122       0.2204   189.5
34.7500     -17371.1214  -17371.3758       0.2545   218.7
35.0000     -17370.7738  -17371.3138       0.5400   464.2
35.2500     -17371.0685  -17371.3183       0.2498   214.7
35.5000     -17370.7081  -17371.2406       0.5325   457.7
35.7500     -17370.8159  -17371.2242       0.4083   350.9
36.0000     -17370.7492  -17371.1084       0.3592   308.7
36.2500     -17371.0714  -17371.3797       0.3083   265.0
36.5000     -17371.0790  -17371.3960       0.3170   272.5
36.7500     -17370.8413  -17371.3352       0.4939   424.5
37.0000     -17370.8808  -17371.2919       0.4111   353.4
37.2500     -17370.9301  -17371.3188       0.3887   334.1
37.5000     -17371.0369  -17371.3244       0.2875   247.2
37.7500     -17370.9889  -17371.1385       0.1496   128.6
38.0000     -17371.1339  -17371.4228       0.2889   248.3
38.2500     -17370.7121  -17371.1563       0.4441   381.8
38.5000     -17370.9246  -17371.3311       0.4064   349.3
38.7500     -17371.1216  -17371.4193       0.2977   255.9
39.0000     -17370.9714  -17371.3274       0.3561   306.1
39.2500     -17371.1844  -17371.3827       0.1983   170.4
39.5000     -17370.7485  -17371.0536       0.3051   262.3
39.7500     -17370.9346  -17371.2692       0.3346   287.6
40.0000     -17371.0825  -17371.3274       0.2449   210.5
