Time[ps]      Etot[eV]     Epot[eV]     Ekin[eV]    T[K]
0.0000      -17370.1333  -17370.4124       0.2791   239.9
0.2500      -17369.9242  -17370.2791       0.3550   305.1
0.5000      -17370.0322  -17370.2643       0.2321   199.5
0.7500      -17369.9967  -17370.2303       0.2336   200.8
1.0000      -17369.9406  -17370.2014       0.2608   224.2
1.2500      -17369.7816  -17370.0926       0.3109   267.3
1.5000      -17369.6930  -17370.0379       0.3449   296.5
1.7500      -17369.6694  -17370.0283       0.3589   308.5
2.0000      -17369.8138  -17370.1343       0.3206   275.5
2.2500      -17369.8618  -17370.2116       0.3498   300.7
2.5000      -17369.9913  -17370.4828       0.4915   422.5
2.7500      -17370.2121  -17370.5934       0.3812   327.7
3.0000      -17370.0522  -17370.3396       0.2873   247.0
3.2500      -17370.2329  -17370.5588       0.3258   280.1
3.5000      -17370.0919  -17370.3737       0.2817   242.2
3.7500      -17370.2493  -17370.5359       0.2866   246.3
4.0000      -17370.3302  -17370.5345       0.2043   175.6
4.2500      -17370.2913  -17370.5020       0.2108   181.2
4.5000      -17370.0362  -17370.4946       0.4584   394.0
4.7500      -17370.1964  -17370.4887       0.2923   251.3
5.0000      -17370.1029  -17370.4696       0.3667   315.2
5.2500      -17370.2147  -17370.5350       0.3203   275.3
5.5000      -17370.2242  -17370.4644       0.2401   206.4
5.7500      -17370.0603  -17370.4862       0.4259   366.1
6.0000      -17370.1363  -17370.4525       0.3162   271.8
6.2500      -17370.1227  -17370.3787       0.2560   220.1
6.5000      -17370.2015  -17370.4809       0.2794   240.2
6.7500      -17369.9515  -17370.3769       0.4254   365.6
7.0000      -17369.9626  -17370.3172       0.3545   304.7
7.2500      -17370.0912  -17370.4758       0.3846   330.6
7.5000      -17370.0141  -17370.3401       0.3261   280.3
7.7500      -17370.1717  -17370.4551       0.2834   243.6
8.0000      -17370.0729  -17370.4228       0.3499   300.7
8.2500      -17370.1654  -17370.4036       0.2382   204.7
8.5000      -17370.0370  -17370.3976       0.3606   310.0
8.7500      -17370.1147  -17370.3829       0.2682   230.6
9.0000      -17369.9746  -17370.4202       0.4456   383.0
9.2500      -17369.7734  -17370.1606       0.3872   332.9
9.5000      -17369.9617  -17370.3819       0.4202   361.2
9.7500      -17370.1148  -17370.3704       0.2557   219.8
10.0000     -17370.0197  -17370.4826       0.4629   397.9
10.2500     -17370.0899  -17370.2931       0.2032   174.7
10.5000     -17370.1108  -17370.4071       0.2963   254.7
10.7500     -17370.1336  -17370.4458       0.3122   268.4
11.0000     -17370.2649  -17370.4902       0.2253   193.7
11.2500     -17370.2255  -17370.4530       0.2274   195.5
11.5000     -17369.9412  -17370.3454       0.4042   347.4
11.7500     -17370.2022  -17370.5726       0.3704   318.4
12.0000     -17370.1207  -17370.4027       0.2819   242.4
12.2500     -17370.2614  -17370.5025       0.2411   207.2
12.5000     -17369.9018  -17370.4513       0.5495   472.3
12.7500     -17369.7336  -17370.2170       0.4834   415.5
13.0000     -17369.9724  -17370.3851       0.4127   354.8
13.2500     -17369.8292  -17370.3661       0.5369   461.5
13.5000     -17370.1486  -17370.3334       0.1849   158.9
13.7500     -17369.8840  -17370.4088       0.5248   451.1
14.0000     -17370.1480  -17370.4150       0.2670   229.5
14.2500     -17369.9897  -17370.3985       0.4087   351.3
14.5000     -17370.0656  -17370.4573       0.3917   336.7
14.7500     -17369.9464  -17370.2395       0.2931   251.9
15.0000     -17370.0956  -17370.4923       0.3967   341.0
15.2500     -17370.1858  -17370.4742       0.2885   248.0
15.5000     -17369.9313  -17370.3802       0.4490   385.9
15.7500     -17370.0094  -17370.4165       0.4071   350.0
16.0000     -17370.2021  -17370.4217       0.2196   188.8
16.2500     -17370.0296  -17370.4301       0.4005   344.2
16.5000     -17369.9611  -17370.4439       0.4828   415.0
16.7500     -17370.1643  -17370.4942       0.3299   283.6
17.0000     -17370.3036  -17370.4988       0.1953   167.8
17.2500     -17370.0372  -17370.3550       0.3179   273.2
17.5000     -17369.8441  -17370.1616       0.3176   273.0
17.7500     -17370.1294  -17370.4239       0.2946   253.2
18.0000     -17370.1080  -17370.3985       0.2905   249.7
18.2500     -17369.9652  -17370.3589       0.3937   338.5
18.5000     -17370.0670  -17370.3536       0.2866   246.4
18.7500     -17370.1843  -17370.4843       0.3000   257.8
19.0000     -17370.1062  -17370.4142       0.3080   264.8
19.2500     -17370.0155  -17370.4007       0.3852   331.1
19.5000     -17370.2473  -17370.4948       0.2476   212.8
19.7500     -17370.1759  -17370.5470       0.3711   319.0
20.0000     -17369.9374  -17370.3603       0.4229   363.5
20.2500     -17370.0747  -17370.4719       0.3971   341.4
20.5000     -17370.0033  -17370.3872       0.3839   330.0
20.7500     -17370.0977  -17370.4060       0.3083   265.0
21.0000     -17369.9997  -17370.4259       0.4263   366.4
21.2500     -17370.0465  -17370.3802       0.3338   286.9
21.5000     -17369.9331  -17370.4478       0.5146   442.4
21.7500     -17370.0644  -17370.4323       0.3679   316.2
22.0000     -17370.2445  -17370.5448       0.3004   258.2
22.2500     -17370.0021  -17370.4483       0.4462   383.5
22.5000     -17370.0786  -17370.4200       0.3414   293.5
22.7500     -17370.0477  -17370.5265       0.4788   411.6
23.0000     -17370.2908  -17370.5008       0.2100   180.5
23.2500     -17370.0470  -17370.3608       0.3138   269.7
23.5000     -17369.7683  -17370.3292       0.5609   482.2
23.7500     -17370.2611  -17370.5129       0.2518   216.5
24.0000     -17370.0136  -17370.4467       0.4332   372.3
24.2500     -17370.2254  -17370.4496       0.2242   192.7
24.5000     -17370.0446  -17370.4221       0.3775   324.5
24.7500     -17369.9254  -17370.4412       0.5158   443.4
25.0000     -17369.9614  -17370.4534       0.4919   422.9
25.2500     -17370.2007  -17370.5300       0.3293   283.1
25.5000     -17369.9656  -17370.4334       0.4678   402.1
25.7500     -17369.9955  -17370.4706       0.4751   408.4
26.0000     -17370.2008  -17370.4328       0.2320   199.4
26.2500     -17370.1709  -17370.4499       0.2790   239.8
26.5000     -17370.0783  -17370.4613       0.3830   329.2
26.7500     -17370.1051  -17370.4975       0.3924   337.3
27.0000     -17369.9231  -17370.4192       0.4961   426.4
27.2500     -17369.9931  -17370.5408       0.5477   470.8
27.5000     -17370.0284  -17370.4813       0.4529   389.3
27.7500     -17369.9063  -17370.4321       0.5257   451.9
28.0000     -17370.1800  -17370.4826       0.3026   260.2
28.2500     -17370.1629  -17370.5338       0.3709   318.8
28.5000     -17370.1186  -17370.4973       0.3787   325.5
28.7500     -17370.1031  -17370.4878       0.3847   330.7
29.0000     -17370.1043  -17370.4240       0.3197   274.8
29.2500     -17370.1602  -17370.4359       0.2756   236.9
29.5000     -17370.1341  -17370.4953       0.3612   310.5
29.7500     -17370.3213  -17370.5079       0.1866   160.4
30.0000     -17370.1054  -17370.4676       0.3623   311.4
30.2500     -17369.9940  -17370.3184       0.3244   278.8
30.5000     -17369.7585  -17370.4117       0.6532   561.5
30.7500     -17370.0390  -17370.4531       0.4142   356.0
31.0000     -17370.0046  -17370.3839       0.3793   326.1
31.2500     -17370.2859  -17370.4612       0.1753   150.7
31.5000     -17370.1595  -17370.4888       0.3292   283.0
31.7500     -17370.0973  -17370.4554       0.3580   307.8
32.0000     -17369.9795  -17370.3524       0.3730   320.6
32.2500     -17370.2299  -17370.4030       0.1730   148.7
32.5000     -17369.9466  -17370.4741       0.5275   453.4
32.7500     -17370.2764  -17370.5262       0.2497   214.7
33.0000     -17370.1167  -17370.4851       0.3684   316.7
33.2500     -17370.1679  -17370.4383       0.2704   232.5
33.5000     -17370.1425  -17370.4338       0.2914   250.5
33.7500     -17370.2024  -17370.5072       0.3048   262.0
34.0000     -17369.8315  -17370.2653       0.4338   372.9
34.2500     -17370.0570  -17370.4259       0.3689   317.1
34.5000     -17369.9952  -17370.4202       0.4251   365.4
34.7500     -17370.0511  -17370.3961       0.3449   296.5
35.0000     -17370.1487  -17370.5348       0.3861   331.9
35.2500     -17369.9248  -17370.4737       0.5489   471.9
35.5000     -17370.1785  -17370.4408       0.2622   225.4
35.7500     -17370.2639  -17370.5726       0.3087   265.4
36.0000     -17370.1433  -17370.4579       0.3146   270.4
36.2500     -17370.2752  -17370.4371       0.1619   139.2
36.5000     -17370.0090  -17370.4327       0.4237   364.2
36.7500     -17369.9060  -17370.3998       0.4938   424.4
37.0000     -17370.1141  -17370.3239       0.2098   180.4
37.2500     -17370.0752  -17370.3272       0.2520   216.6
37.5000     -17369.8805  -17370.3245       0.4440   381.7
37.7500     -17370.0449  -17370.4414       0.3965   340.8
38.0000     -17370.1654  -17370.4175       0.2522   216.8
38.2500     -17370.1672  -17370.3947       0.2275   195.5
38.5000     -17370.1906  -17370.5462       0.3556   305.7
38.7500     -17370.1101  -17370.7080       0.5979   514.0
39.0000     -17370.5128  -17370.7987       0.2859   245.8
39.2500     -17370.5657  -17370.7531       0.1874   161.1
39.5000     -17370.0792  -17370.7898       0.7106   610.9
39.7500     -17370.2788  -17370.6754       0.3966   340.9
40.0000     -17370.3530  -17370.6983       0.3453   296.8
