Time[ps]      Etot[eV]     Epot[eV]     Ekin[eV]    T[K]
0.0000      -17370.0517  -17370.4124       0.3607   310.1
0.2500      -17369.9604  -17370.2112       0.2508   215.6
0.5000      -17369.8963  -17370.3295       0.4332   372.4
0.7500      -17369.8137  -17370.2425       0.4288   368.6
1.0000      -17369.8625  -17370.0726       0.2100   180.5
1.2500      -17369.6586  -17370.0415       0.3829   329.2
1.5000      -17369.8224  -17370.1936       0.3711   319.0
1.7500      -17370.1631  -17370.5981       0.4350   373.9
2.0000      -17370.2177  -17370.6123       0.3946   339.2
2.2500      -17370.1362  -17370.6079       0.4717   405.5
2.5000      -17370.4531  -17370.7750       0.3219   276.7
2.7500      -17370.4946  -17370.7898       0.2952   253.8
3.0000      -17370.6187  -17370.9409       0.3222   277.0
3.2500      -17370.4751  -17370.7116       0.2365   203.3
3.5000      -17370.4924  -17370.7543       0.2619   225.2
3.7500      -17370.3740  -17370.8718       0.4977   427.9
4.0000      -17370.4925  -17370.8064       0.3139   269.8
4.2500      -17370.4866  -17370.7898       0.3032   260.6
4.5000      -17370.2753  -17370.7927       0.5173   444.7
4.7500      -17370.4160  -17370.7698       0.3538   304.1
5.0000      -17370.2526  -17370.6493       0.3967   341.0
5.2500      -17370.6312  -17370.8623       0.2310   198.6
5.5000      -17370.3672  -17370.7870       0.4198   360.8
5.7500      -17370.5246  -17370.7811       0.2565   220.5
6.0000      -17370.4356  -17370.8356       0.4000   343.8
6.2500      -17370.4557  -17370.7279       0.2722   234.0
6.5000      -17370.0459  -17370.6104       0.5645   485.3
6.7500      -17370.3096  -17370.7116       0.4019   345.5
7.0000      -17370.4145  -17370.8479       0.4333   372.5
7.2500      -17370.4157  -17370.7977       0.3819   328.3
7.5000      -17370.3741  -17370.7726       0.3985   342.5
7.7500      -17370.6757  -17370.8839       0.2082   179.0
8.0000      -17370.6397  -17370.8180       0.1783   153.3
8.2500      -17370.5798  -17370.8346       0.2548   219.0
8.5000      -17370.4047  -17370.7848       0.3801   326.7
8.7500      -17370.2880  -17370.7142       0.4263   366.4
9.0000      -17370.2900  -17370.8190       0.5290   454.7
9.2500      -17370.5616  -17370.7242       0.1626   139.7
9.5000      -17370.5394  -17370.8474       0.3080   264.7
9.7500      -17370.4573  -17370.7500       0.2927   251.6
10.0000     -17370.3797  -17370.8838       0.5041   433.3
10.2500     -17370.4979  -17370.7570       0.2591   222.7
10.5000     -17370.5253  -17370.8394       0.3141   270.0
10.7500     -17370.4064  -17370.8217       0.4153   357.0
11.0000     -17369.8947  -17370.4298       0.5351   460.0
11.2500     -17370.4341  -17370.7126       0.2785   239.4
11.5000     -17370.4311  -17370.7536       0.3226   277.3
11.7500     -17370.5881  -17370.8564       0.2684   230.7
12.0000     -17370.4498  -17370.8350       0.3853   331.2
12.2500     -17370.3744  -17370.7727       0.3983   342.4
12.5000     -17370.5477  -17370.8499       0.3022   259.8
12.7500     -17370.2161  -17370.7418       0.5257   451.9
13.0000     -17370.2646  -17370.6972       0.4326   371.9
13.2500     -17370.5142  -17370.7704       0.2563   220.3
13.5000     -17370.4793  -17370.8863       0.4070   349.9
13.7500     -17370.5719  -17370.8304       0.2585   222.2
14.0000     -17370.4466  -17370.8064       0.3597   309.2
14.2500     -17370.4330  -17370.7607       0.3277   281.7
14.5000     -17370.5497  -17370.7655       0.2159   185.5
14.7500     -17370.6784  -17370.8933       0.2149   184.7
15.0000     -17370.5142  -17370.9169       0.4026   346.1
15.2500     -17370.5683  -17370.8828       0.3145   270.4
15.5000     -17370.5747  -17370.8671       0.2924   251.3
15.7500     -17370.6123  -17370.8756       0.2633   226.4
16.0000     -17370.4923  -17370.7228       0.2304   198.1
16.2500     -17370.4442  -17370.8193       0.3751   322.4
16.5000     -17370.4216  -17370.8227       0.4011   344.8
16.7500     -17370.4498  -17370.8583       0.4085   351.1
17.0000     -17370.5042  -17370.8186       0.3144   270.2
17.2500     -17370.3852  -17370.7461       0.3609   310.2
17.5000     -17370.3389  -17370.8070       0.4681   402.4
17.7500     -17370.1988  -17370.7359       0.5371   461.7
18.0000     -17370.5945  -17370.8366       0.2421   208.1
18.2500     -17370.5019  -17370.8624       0.3606   309.9
18.5000     -17370.5046  -17370.7669       0.2622   225.4
18.7500     -17370.4790  -17370.8555       0.3765   323.6
19.0000     -17370.4141  -17370.8152       0.4011   344.8
19.2500     -17370.4326  -17370.8570       0.4244   364.8
19.5000     -17370.5037  -17370.8124       0.3087   265.4
19.7500     -17370.4894  -17370.7997       0.3103   266.8
20.0000     -17370.5105  -17370.7997       0.2892   248.6
20.2500     -17370.4945  -17370.8596       0.3651   313.9
20.5000     -17370.4463  -17370.8548       0.4085   351.1
20.7500     -17370.5071  -17370.8266       0.3195   274.7
21.0000     -17370.3575  -17370.8232       0.4657   400.3
21.2500     -17370.6037  -17370.9438       0.3401   292.4
21.5000     -17370.5922  -17370.8623       0.2701   232.2
21.7500     -17370.4253  -17370.8223       0.3970   341.2
22.0000     -17370.3924  -17370.7115       0.3191   274.3
22.2500     -17370.5013  -17370.7873       0.2860   245.8
22.5000     -17370.3904  -17370.7995       0.4090   351.6
22.7500     -17370.3371  -17370.7424       0.4053   348.4
23.0000     -17370.6666  -17370.8771       0.2106   181.0
23.2500     -17370.4167  -17370.8091       0.3923   337.2
23.5000     -17370.3823  -17370.7093       0.3271   281.1
23.7500     -17370.4269  -17370.7538       0.3269   281.0
24.0000     -17370.2846  -17370.6530       0.3684   316.7
24.2500     -17370.3514  -17370.7472       0.3958   340.2
24.5000     -17370.5074  -17370.8097       0.3023   259.8
24.7500     -17370.5242  -17370.8199       0.2957   254.2
25.0000     -17370.5748  -17370.9356       0.3608   310.2
25.2500     -17370.4413  -17370.8135       0.3722   319.9
25.5000     -17370.5788  -17370.8199       0.2411   207.2
25.7500     -17370.5536  -17370.8054       0.2519   216.5
26.0000     -17370.5889  -17370.8671       0.2783   239.2
26.2500     -17370.3816  -17370.7408       0.3592   308.7
26.5000     -17370.3125  -17370.7775       0.4649   399.6
26.7500     -17370.5467  -17370.7696       0.2230   191.6
27.0000     -17370.3723  -17370.8344       0.4620   397.1
27.2500     -17370.3611  -17370.8584       0.4973   427.5
27.5000     -17370.6673  -17370.8674       0.2002   172.1
27.7500     -17370.5903  -17370.9191       0.3289   282.7
28.0000     -17370.6457  -17370.8863       0.2407   206.9
28.2500     -17370.5210  -17370.8626       0.3416   293.6
28.5000     -17370.4396  -17370.8702       0.4306   370.1
28.7500     -17370.4448  -17370.7776       0.3328   286.1
29.0000     -17370.6148  -17370.8657       0.2509   215.7
29.2500     -17370.6414  -17370.9643       0.3229   277.6
29.5000     -17370.5686  -17370.8642       0.2956   254.1
29.7500     -17370.4055  -17370.9232       0.5177   445.0
30.0000     -17370.4740  -17370.8565       0.3825   328.8
30.2500     -17370.5010  -17370.8545       0.3535   303.9
30.5000     -17370.3848  -17370.7408       0.3560   306.0
30.7500     -17370.2760  -17370.7922       0.5162   443.7
31.0000     -17370.6189  -17370.8441       0.2252   193.6
31.2500     -17370.4269  -17370.7314       0.3045   261.8
31.5000     -17370.5290  -17370.8054       0.2763   237.5
31.7500     -17370.4450  -17370.6989       0.2538   218.2
32.0000     -17370.5041  -17370.7948       0.2907   249.9
32.2500     -17370.6999  -17370.8957       0.1958   168.3
32.5000     -17370.4186  -17370.7980       0.3794   326.2
32.7500     -17370.3838  -17370.7762       0.3923   337.2
33.0000     -17370.6406  -17370.8728       0.2322   199.6
33.2500     -17370.3679  -17370.7583       0.3904   335.6
33.5000     -17370.3820  -17370.7173       0.3352   288.2
33.7500     -17370.5267  -17370.8134       0.2867   246.5
34.0000     -17370.4789  -17370.8237       0.3448   296.4
34.2500     -17370.5544  -17370.8261       0.2717   233.5
34.5000     -17370.4940  -17370.8795       0.3855   331.3
34.7500     -17370.4410  -17370.8412       0.4003   344.1
35.0000     -17370.6577  -17370.9191       0.2614   224.7
35.2500     -17370.4389  -17370.8839       0.4450   382.5
35.5000     -17370.2511  -17370.7146       0.4635   398.4
35.7500     -17370.5830  -17370.8699       0.2870   246.7
36.0000     -17370.6882  -17370.9010       0.2128   182.9
36.2500     -17370.3874  -17370.8753       0.4879   419.4
36.5000     -17370.4753  -17370.7731       0.2979   256.0
36.7500     -17370.4413  -17370.8415       0.4002   344.0
37.0000     -17370.5724  -17370.7983       0.2258   194.1
37.2500     -17370.1741  -17370.8236       0.6496   558.3
37.5000     -17370.4895  -17370.7601       0.2706   232.6
37.7500     -17370.6957  -17370.8669       0.1712   147.1
38.0000     -17370.4638  -17370.7735       0.3097   266.2
38.2500     -17370.4204  -17370.7681       0.3477   298.9
38.5000     -17370.3725  -17370.8341       0.4616   396.8
38.7500     -17370.2896  -17370.7944       0.5047   433.9
39.0000     -17370.5234  -17370.9788       0.4554   391.5
39.2500     -17370.3805  -17370.6851       0.3045   261.8
39.5000     -17370.6036  -17370.8418       0.2382   204.7
39.7500     -17370.5611  -17370.8189       0.2577   221.5
40.0000     -17370.4975  -17370.8293       0.3318   285.2
