Time[ps]      Etot[eV]     Epot[eV]     Ekin[eV]    T[K]
0.0000      -17370.0059  -17370.4124       0.4064   349.4
0.2500      -17369.8936  -17370.2765       0.3829   329.2
0.5000      -17369.6943  -17370.1194       0.4251   365.5
0.7500      -17369.7852  -17370.1619       0.3767   323.8
1.0000      -17370.0273  -17370.2603       0.2330   200.3
1.2500      -17369.7720  -17370.1265       0.3545   304.7
1.5000      -17369.7609  -17370.0752       0.3143   270.2
1.7500      -17369.6429  -17370.1121       0.4691   403.3
2.0000      -17370.0547  -17370.4676       0.4129   355.0
2.2500      -17370.3041  -17370.5925       0.2884   247.9
2.5000      -17370.2233  -17370.6598       0.4365   375.2
2.7500      -17370.5236  -17370.8369       0.3133   269.3
3.0000      -17370.2730  -17370.7415       0.4685   402.7
3.2500      -17370.3513  -17370.6580       0.3068   263.7
3.5000      -17370.4571  -17370.7694       0.3124   268.5
3.7500      -17370.0538  -17370.7167       0.6629   569.8
4.0000      -17370.5813  -17370.7630       0.1817   156.2
4.2500      -17370.3999  -17370.6750       0.2751   236.4
4.5000      -17370.3729  -17370.7916       0.4186   359.9
4.7500      -17370.3668  -17370.7751       0.4083   351.0
5.0000      -17370.5200  -17370.8045       0.2846   244.6
5.2500      -17370.3114  -17370.7280       0.4166   358.1
5.5000      -17370.3560  -17370.6795       0.3235   278.1
5.7500      -17370.1262  -17370.5597       0.4335   372.6
6.0000      -17370.2604  -17370.6793       0.4189   360.0
6.2500      -17370.2442  -17370.7188       0.4747   408.0
6.5000      -17370.3967  -17370.7687       0.3719   319.7
6.7500      -17370.2935  -17370.7054       0.4119   354.1
7.0000      -17370.4051  -17370.6416       0.2365   203.3
7.2500      -17370.4089  -17370.7751       0.3662   314.8
7.5000      -17370.2737  -17370.5909       0.3172   272.7
7.7500      -17370.5317  -17370.7721       0.2404   206.6
8.0000      -17370.3280  -17370.6717       0.3437   295.4
8.2500      -17370.1303  -17370.6698       0.5395   463.8
8.5000      -17370.4757  -17370.8024       0.3267   280.8
8.7500      -17370.2110  -17370.6707       0.4596   395.1
9.0000      -17370.3145  -17370.7543       0.4398   378.0
9.2500      -17370.3821  -17370.7816       0.3994   343.4
9.5000      -17370.3556  -17370.6907       0.3352   288.1
9.7500      -17370.4015  -17370.6643       0.2628   225.9
10.0000     -17370.5265  -17370.8023       0.2757   237.0
10.2500     -17370.2327  -17370.6128       0.3801   326.7
10.5000     -17370.2994  -17370.6555       0.3561   306.1
10.7500     -17370.4007  -17370.6558       0.2552   219.3
11.0000     -17370.1574  -17370.6759       0.5185   445.7
11.2500     -17370.2641  -17370.6286       0.3645   313.3
11.5000     -17370.3327  -17370.6980       0.3653   314.0
11.7500     -17370.5083  -17370.8232       0.3149   270.7
12.0000     -17370.3707  -17370.7288       0.3581   307.9
12.2500     -17370.3441  -17370.7533       0.4092   351.8
12.5000     -17370.4002  -17370.7095       0.3094   265.9
12.7500     -17370.3610  -17370.6510       0.2901   249.3
13.0000     -17370.3324  -17370.6666       0.3342   287.3
13.2500     -17370.5632  -17370.7406       0.1774   152.5
13.5000     -17370.2410  -17370.6565       0.4154   357.1
13.7500     -17370.2003  -17370.6126       0.4123   354.4
14.0000     -17370.5367  -17370.8581       0.3214   276.3
14.2500     -17370.4004  -17370.5906       0.1902   163.5
14.5000     -17370.4504  -17370.7886       0.3382   290.7
14.7500     -17370.2808  -17370.6209       0.3401   292.3
15.0000     -17370.3122  -17370.7267       0.4145   356.3
15.2500     -17370.4835  -17370.6651       0.1815   156.1
15.5000     -17370.3351  -17370.7696       0.4346   373.6
15.7500     -17370.1632  -17370.5988       0.4356   374.4
16.0000     -17370.4195  -17370.7287       0.3092   265.8
16.2500     -17370.2753  -17370.7385       0.4632   398.2
16.5000     -17370.4398  -17370.6479       0.2080   178.8
16.7500     -17370.4033  -17370.6455       0.2422   208.2
17.0000     -17370.3819  -17370.6502       0.2683   230.6
17.2500     -17370.3577  -17370.6889       0.3311   284.7
17.5000     -17370.3546  -17370.7414       0.3868   332.5
17.7500     -17370.0568  -17370.4847       0.4279   367.8
18.0000     -17370.2790  -17370.5283       0.2493   214.3
18.2500     -17370.1761  -17370.4982       0.3221   276.8
18.5000     -17370.1774  -17370.5495       0.3722   319.9
18.7500     -17370.5361  -17370.8207       0.2847   244.7
19.0000     -17370.5834  -17370.8014       0.2179   187.3
19.2500     -17370.5598  -17370.8131       0.2534   217.8
19.5000     -17370.2408  -17370.7604       0.5196   446.6
19.7500     -17370.4349  -17370.7176       0.2826   243.0
20.0000     -17370.2470  -17370.6341       0.3870   332.7
20.2500     -17370.2751  -17370.7727       0.4976   427.8
20.5000     -17370.4487  -17370.6965       0.2477   212.9
20.7500     -17370.2986  -17370.7423       0.4437   381.4
21.0000     -17370.3023  -17370.6541       0.3518   302.4
21.2500     -17370.3570  -17370.8319       0.4749   408.2
21.5000     -17370.4625  -17370.7012       0.2387   205.2
21.7500     -17370.3372  -17370.7293       0.3922   337.1
22.0000     -17370.3617  -17370.6928       0.3311   284.6
22.2500     -17370.3202  -17370.7691       0.4489   385.8
22.5000     -17370.4921  -17370.8466       0.3546   304.8
22.7500     -17370.2232  -17370.7102       0.4869   418.6
23.0000     -17370.2410  -17370.7257       0.4846   416.6
23.2500     -17370.2842  -17370.5825       0.2983   256.4
23.5000     -17370.4757  -17370.7161       0.2404   206.6
23.7500     -17370.2581  -17370.5893       0.3311   284.7
24.0000     -17370.3623  -17370.6545       0.2923   251.2
24.2500     -17370.3868  -17370.6978       0.3110   267.4
24.5000     -17370.2694  -17370.6524       0.3829   329.2
24.7500     -17370.2672  -17370.7344       0.4672   401.6
25.0000     -17370.4476  -17370.7599       0.3123   268.5
25.2500     -17370.3435  -17370.7312       0.3877   333.3
25.5000     -17370.3400  -17370.6942       0.3542   304.4
25.7500     -17370.3888  -17370.7875       0.3987   342.7
26.0000     -17370.3002  -17370.6949       0.3947   339.3
26.2500     -17370.3227  -17370.7768       0.4541   390.3
26.5000     -17370.3960  -17370.7637       0.3677   316.0
26.7500     -17370.3622  -17370.7817       0.4196   360.6
27.0000     -17370.4547  -17370.6715       0.2168   186.3
27.2500     -17370.5126  -17370.7560       0.2434   209.2
27.5000     -17370.3053  -17370.6730       0.3677   316.0
27.7500     -17370.3820  -17370.7478       0.3658   314.4
28.0000     -17370.4037  -17370.8243       0.4207   361.6
28.2500     -17370.4261  -17370.7705       0.3444   296.0
28.5000     -17370.3650  -17370.6539       0.2889   248.4
28.7500     -17370.0491  -17370.4937       0.4446   382.2
29.0000     -17370.5112  -17370.7982       0.2870   246.7
29.2500     -17370.3336  -17370.8919       0.5583   479.9
29.5000     -17370.3571  -17370.6120       0.2548   219.1
29.7500     -17370.4249  -17370.7592       0.3343   287.4
30.0000     -17370.4056  -17370.6957       0.2900   249.3
30.2500     -17370.3559  -17370.7312       0.3753   322.6
30.5000     -17370.3461  -17370.7399       0.3937   338.4
30.7500     -17370.4166  -17370.7592       0.3426   294.5
31.0000     -17370.3944  -17370.7204       0.3260   280.2
31.2500     -17370.2607  -17370.7033       0.4426   380.5
31.5000     -17370.4210  -17370.7918       0.3708   318.7
31.7500     -17370.1690  -17370.4522       0.2831   243.4
32.0000     -17370.4081  -17370.6803       0.2721   233.9
32.2500     -17370.4922  -17370.7419       0.2496   214.6
32.5000     -17370.2359  -17370.6275       0.3916   336.6
32.7500     -17370.4879  -17370.7772       0.2892   248.6
33.0000     -17370.2251  -17370.5222       0.2971   255.4
33.2500     -17370.1914  -17370.7271       0.5356   460.4
33.5000     -17370.4111  -17370.8057       0.3945   339.2
33.7500     -17370.5041  -17370.7356       0.2315   199.0
34.0000     -17370.2769  -17370.6929       0.4160   357.6
34.2500     -17370.2398  -17370.7256       0.4857   417.5
34.5000     -17370.2276  -17370.6527       0.4252   365.5
34.7500     -17370.2761  -17370.7839       0.5078   436.5
35.0000     -17370.2555  -17370.5582       0.3026   260.1
35.2500     -17370.2378  -17370.7740       0.5362   460.9
35.5000     -17370.3475  -17370.6479       0.3004   258.2
35.7500     -17370.0521  -17370.6382       0.5861   503.8
36.0000     -17370.3118  -17370.7986       0.4868   418.5
36.2500     -17370.6159  -17370.7977       0.1818   156.3
36.5000     -17370.4871  -17370.6652       0.1782   153.1
36.7500     -17370.3776  -17370.7049       0.3273   281.4
37.0000     -17370.4915  -17370.7230       0.2314   199.0
37.2500     -17370.6005  -17370.8790       0.2785   239.4
37.5000     -17370.3164  -17370.6442       0.3279   281.8
37.7500     -17370.1581  -17370.5863       0.4282   368.1
38.0000     -17370.3409  -17370.6776       0.3367   289.5
38.2500     -17370.1222  -17370.6136       0.4913   422.3
38.5000     -17370.3221  -17370.6084       0.2863   246.1
38.7500     -17370.2335  -17370.5390       0.3055   262.6
39.0000     -17370.0516  -17370.6339       0.5823   500.5
39.2500     -17370.4126  -17370.7504       0.3378   290.3
39.5000     -17370.5415  -17370.7877       0.2462   211.6
39.7500     -17370.3989  -17370.6652       0.2664   229.0
40.0000     -17370.3432  -17370.6893       0.3462   297.6
