Time[ps]      Etot[eV]     Epot[eV]     Ekin[eV]    T[K]
0.0000      -17370.1581  -17370.4124       0.2542   218.5
0.2500      -17369.9941  -17370.3169       0.3228   277.5
0.5000      -17369.7824  -17370.1685       0.3861   331.9
0.7500      -17369.8463  -17370.2133       0.3671   315.5
1.0000      -17369.9675  -17370.2477       0.2802   240.8
1.2500      -17369.7946  -17370.1099       0.3153   271.0
1.5000      -17369.6497  -17369.9682       0.3184   273.7
1.7500      -17369.6940  -17370.1482       0.4542   390.4
2.0000      -17370.0439  -17370.3931       0.3491   300.1
2.2500      -17370.2294  -17370.5110       0.2815   242.0
2.5000      -17370.3241  -17370.7566       0.4326   371.8
2.7500      -17370.3319  -17370.6600       0.3281   282.0
3.0000      -17370.4566  -17370.6766       0.2200   189.1
3.2500      -17370.1118  -17370.6094       0.4975   427.7
3.5000      -17370.1947  -17370.4455       0.2508   215.6
3.7500      -17370.5062  -17370.7550       0.2488   213.9
4.0000      -17370.4863  -17370.7622       0.2759   237.2
4.2500      -17370.5025  -17370.6825       0.1800   154.7
4.5000      -17370.3391  -17370.6550       0.3160   271.6
4.7500      -17370.3217  -17370.6724       0.3507   301.4
5.0000      -17370.0267  -17370.5176       0.4909   421.9
5.2500      -17370.3825  -17370.6860       0.3035   260.9
5.5000      -17370.0690  -17370.5280       0.4591   394.6
5.7500      -17370.3306  -17370.6235       0.2929   251.8
6.0000      -17370.2933  -17370.6321       0.3388   291.2
6.2500      -17370.1229  -17370.5285       0.4055   348.6
6.5000      -17370.0518  -17370.4593       0.4075   350.3
6.7500      -17370.2561  -17370.6314       0.3753   322.6
7.0000      -17370.0412  -17370.5888       0.5476   470.7
7.2500      -17370.1915  -17370.5442       0.3527   303.2
7.5000      -17370.3604  -17370.7011       0.3407   292.9
7.7500      -17370.1499  -17370.5433       0.3934   338.2
8.0000      -17370.2026  -17370.5874       0.3848   330.8
8.2500      -17370.4042  -17370.6277       0.2235   192.2
8.5000      -17370.2661  -17370.5529       0.2868   246.6
8.7500      -17370.3180  -17370.6940       0.3759   323.2
9.0000      -17370.1541  -17370.6666       0.5124   440.5
9.2500      -17370.2669  -17370.6366       0.3697   317.8
9.5000      -17370.3389  -17370.6167       0.2778   238.8
9.7500      -17370.3848  -17370.6653       0.2804   241.1
10.0000     -17370.1657  -17370.5778       0.4120   354.2
10.2500     -17370.2418  -17370.5383       0.2964   254.8
10.5000     -17370.3372  -17370.6386       0.3014   259.1
10.7500     -17370.2605  -17370.6115       0.3510   301.7
11.0000     -17369.9817  -17370.5326       0.5510   473.6
11.2500     -17370.2428  -17370.7026       0.4598   395.2
11.5000     -17370.4838  -17370.7407       0.2569   220.8
11.7500     -17370.4034  -17370.7181       0.3147   270.5
12.0000     -17370.2819  -17370.5785       0.2965   254.9
12.2500     -17370.3396  -17370.6545       0.3150   270.7
12.5000     -17369.9777  -17370.6059       0.6283   540.0
12.7500     -17370.5068  -17370.7057       0.1989   171.0
13.0000     -17370.1823  -17370.5382       0.3559   306.0
13.2500     -17370.2407  -17370.5909       0.3503   301.1
13.5000     -17370.2786  -17370.5681       0.2895   248.8
13.7500     -17370.4811  -17370.7510       0.2698   231.9
14.0000     -17370.3598  -17370.7409       0.3810   327.5
14.2500     -17370.5000  -17370.7716       0.2717   233.5
14.5000     -17370.2564  -17370.6250       0.3686   316.9
14.7500     -17370.3192  -17370.6369       0.3177   273.1
15.0000     -17370.3805  -17370.6783       0.2979   256.0
15.2500     -17370.3716  -17370.6650       0.2934   252.2
15.5000     -17370.3460  -17370.7065       0.3604   309.8
15.7500     -17370.3410  -17370.6953       0.3543   304.6
16.0000     -17370.3673  -17370.5927       0.2254   193.7
16.2500     -17370.5380  -17370.7780       0.2401   206.4
16.5000     -17370.2628  -17370.6743       0.4115   353.7
16.7500     -17370.4844  -17370.7656       0.2812   241.7
17.0000     -17370.3584  -17370.6277       0.2693   231.5
17.2500     -17370.1115  -17370.5059       0.3944   339.1
17.5000     -17370.1412  -17370.5861       0.4449   382.4
17.7500     -17369.9508  -17370.4431       0.4922   423.1
18.0000     -17370.0573  -17370.5596       0.5023   431.8
18.2500     -17369.8740  -17370.5403       0.6663   572.8
18.5000     -17370.0246  -17370.5189       0.4943   424.9
18.7500     -17370.4547  -17370.6968       0.2422   208.2
19.0000     -17370.3604  -17370.5578       0.1974   169.7
19.2500     -17370.2314  -17370.5881       0.3567   306.7
19.5000     -17370.0580  -17370.5982       0.5402   464.3
19.7500     -17370.3466  -17370.6951       0.3485   299.5
20.0000     -17370.1734  -17370.5575       0.3841   330.2
20.2500     -17370.3129  -17370.6682       0.3553   305.4
20.5000     -17370.3071  -17370.5715       0.2644   227.2
20.7500     -17370.3448  -17370.6144       0.2697   231.8
21.0000     -17370.2280  -17370.6313       0.4033   346.7
21.2500     -17370.2387  -17370.6389       0.4001   344.0
21.5000     -17370.3778  -17370.6123       0.2346   201.6
21.7500     -17370.3536  -17370.7130       0.3594   308.9
22.0000     -17370.1957  -17370.5611       0.3654   314.1
22.2500     -17370.4241  -17370.7604       0.3363   289.1
22.5000     -17370.2666  -17370.6908       0.4241   364.6
22.7500     -17370.2297  -17370.5391       0.3094   265.9
23.0000     -17370.2693  -17370.6064       0.3371   289.8
23.2500     -17370.2394  -17370.5747       0.3353   288.2
23.5000     -17370.4176  -17370.6559       0.2384   204.9
23.7500     -17370.2127  -17370.6008       0.3881   333.6
24.0000     -17370.2543  -17370.5574       0.3031   260.6
24.2500     -17370.4137  -17370.5973       0.1835   157.8
24.5000     -17370.1069  -17370.6182       0.5114   439.6
24.7500     -17370.2388  -17370.5733       0.3345   287.5
25.0000     -17370.1675  -17370.6626       0.4951   425.6
25.2500     -17370.3864  -17370.6345       0.2481   213.3
25.5000     -17370.3463  -17370.5794       0.2331   200.4
25.7500     -17370.2900  -17370.6404       0.3505   301.3
26.0000     -17370.1181  -17370.5237       0.4056   348.7
26.2500     -17370.1356  -17370.5898       0.4542   390.4
26.5000     -17370.3688  -17370.6732       0.3043   261.6
26.7500     -17370.2034  -17370.5957       0.3923   337.2
27.0000     -17370.1159  -17370.6123       0.4964   426.7
27.2500     -17370.2925  -17370.6148       0.3223   277.1
27.5000     -17370.3643  -17370.6195       0.2552   219.4
27.7500     -17370.2960  -17370.6140       0.3180   273.4
28.0000     -17370.1617  -17370.4913       0.3296   283.3
28.2500     -17370.2595  -17370.5986       0.3391   291.5
28.5000     -17370.1978  -17370.5103       0.3125   268.6
28.7500     -17370.2042  -17370.5646       0.3605   309.9
29.0000     -17370.0835  -17370.4474       0.3639   312.8
29.2500     -17370.1861  -17370.5344       0.3482   299.3
29.5000     -17370.1302  -17370.5799       0.4498   386.6
29.7500     -17370.2633  -17370.6127       0.3494   300.4
30.0000     -17369.9765  -17370.4274       0.4510   387.7
30.2500     -17370.1380  -17370.5070       0.3690   317.2
30.5000     -17370.1454  -17370.5729       0.4275   367.5
30.7500     -17370.3426  -17370.6504       0.3078   264.6
31.0000     -17370.3010  -17370.5143       0.2133   183.4
31.2500     -17370.2243  -17370.4855       0.2612   224.5
31.5000     -17370.3255  -17370.7337       0.4082   350.9
31.7500     -17370.0621  -17370.4031       0.3410   293.1
32.0000     -17370.2472  -17370.4935       0.2464   211.8
32.2500     -17370.0681  -17370.5213       0.4532   389.6
32.5000     -17370.3056  -17370.5823       0.2767   237.8
32.7500     -17370.5215  -17370.7843       0.2628   225.9
33.0000     -17370.2219  -17370.4053       0.1834   157.7
33.2500     -17370.3175  -17370.6032       0.2857   245.6
33.5000     -17370.2979  -17370.5635       0.2656   228.3
33.7500     -17370.3172  -17370.5086       0.1914   164.5
34.0000     -17370.1951  -17370.5926       0.3975   341.7
34.2500     -17370.3914  -17370.5957       0.2043   175.6
34.5000     -17370.2590  -17370.5285       0.2695   231.6
34.7500     -17369.9569  -17370.4827       0.5258   451.9
35.0000     -17370.1631  -17370.4757       0.3126   268.7
35.2500     -17370.3442  -17370.4744       0.1302   111.9
35.5000     -17370.3718  -17370.6093       0.2375   204.1
35.7500     -17370.1305  -17370.5246       0.3940   338.7
36.0000     -17370.2221  -17370.5449       0.3228   277.5
36.2500     -17370.1965  -17370.6246       0.4281   368.0
36.5000     -17370.1121  -17370.5605       0.4484   385.5
36.7500     -17370.0341  -17370.4667       0.4326   371.9
37.0000     -17370.1882  -17370.4830       0.2948   253.4
37.2500     -17370.0940  -17370.4839       0.3899   335.1
37.5000     -17370.2516  -17370.5766       0.3250   279.4
37.7500     -17370.3986  -17370.7161       0.3175   272.9
38.0000     -17370.1380  -17370.5156       0.3776   324.5
38.2500     -17370.2129  -17370.6503       0.4374   376.0
38.5000     -17370.3522  -17370.5757       0.2235   192.1
38.7500     -17370.2384  -17370.5339       0.2955   254.0
39.0000     -17370.1877  -17370.5499       0.3622   311.4
39.2500     -17370.0251  -17370.6030       0.5778   496.7
39.5000     -17370.1278  -17370.4117       0.2839   244.0
39.7500     -17370.3829  -17370.7755       0.3926   337.5
40.0000     -17369.9377  -17370.5887       0.6510   559.6
