Time[ps]      Etot[eV]     Epot[eV]     Ekin[eV]    T[K]
0.0000      -17370.1092  -17370.4124       0.3031   260.6
0.2500      -17369.9192  -17370.2546       0.3354   288.3
0.5000      -17369.7008  -17370.0115       0.3107   267.0
0.7500      -17369.7968  -17370.1183       0.3215   276.4
1.0000      -17369.8256  -17370.1919       0.3663   314.9
1.2500      -17369.1976  -17369.8998       0.7022   603.6
1.5000      -17369.5960  -17370.2725       0.6765   581.5
1.7500      -17369.9450  -17370.3033       0.3583   308.0
2.0000      -17370.1788  -17370.4769       0.2981   256.2
2.2500      -17370.4485  -17370.6983       0.2499   214.8
2.5000      -17370.3046  -17370.6662       0.3616   310.8
2.7500      -17370.5380  -17370.8300       0.2919   250.9
3.0000      -17370.3840  -17370.7519       0.3679   316.2
3.2500      -17370.3802  -17370.8061       0.4259   366.1
3.5000      -17370.4334  -17370.7833       0.3499   300.8
3.7500      -17370.1246  -17370.5309       0.4062   349.2
4.0000      -17370.1041  -17370.7624       0.6583   565.9
4.2500      -17370.3311  -17370.5825       0.2514   216.1
4.5000      -17370.3746  -17370.8400       0.4654   400.1
4.7500      -17370.4099  -17370.7034       0.2934   252.2
5.0000      -17370.5901  -17370.8992       0.3091   265.7
5.2500      -17370.5506  -17370.7487       0.1981   170.3
5.5000      -17370.5490  -17370.8474       0.2983   256.4
5.7500      -17370.3499  -17370.7882       0.4383   376.8
6.0000      -17370.3913  -17370.7055       0.3142   270.0
6.2500      -17370.5369  -17370.8224       0.2855   245.4
6.5000      -17370.3473  -17370.7197       0.3725   320.2
6.7500      -17370.6845  -17370.8556       0.1711   147.1
7.0000      -17370.5240  -17370.8095       0.2855   245.4
7.2500      -17370.2874  -17370.8356       0.5482   471.2
7.5000      -17370.1475  -17370.6830       0.5354   460.2
7.7500      -17370.2582  -17370.5347       0.2765   237.7
8.0000      -17370.2336  -17370.6639       0.4303   369.9
8.2500      -17370.5292  -17370.8633       0.3340   287.1
8.5000      -17370.3931  -17370.8316       0.4384   376.9
8.7500      -17370.2973  -17370.5749       0.2776   238.6
9.0000      -17370.3988  -17370.6974       0.2987   256.7
9.2500      -17370.3326  -17370.7423       0.4098   352.2
9.5000      -17370.4138  -17370.7575       0.3437   295.4
9.7500      -17370.3359  -17370.6522       0.3163   271.9
10.0000     -17370.5530  -17370.9105       0.3574   307.2
10.2500     -17370.5944  -17370.7821       0.1877   161.3
10.5000     -17370.5182  -17370.8567       0.3385   291.0
10.7500     -17370.3692  -17370.6969       0.3276   281.6
11.0000     -17370.3382  -17370.6927       0.3544   304.7
11.2500     -17370.5251  -17370.7960       0.2708   232.8
11.5000     -17370.3679  -17370.6839       0.3160   271.6
11.7500     -17370.2417  -17370.6709       0.4292   369.0
12.0000     -17370.7240  -17370.9168       0.1929   165.8
12.2500     -17370.1255  -17370.6475       0.5220   448.7
12.5000     -17370.2012  -17370.5482       0.3470   298.3
12.7500     -17370.3030  -17370.7047       0.4017   345.3
13.0000     -17370.3392  -17370.6473       0.3081   264.8
13.2500     -17370.4800  -17370.7734       0.2935   252.3
13.5000     -17370.5237  -17370.7796       0.2559   220.0
13.7500     -17370.1993  -17370.7924       0.5931   509.9
14.0000     -17370.4772  -17370.6753       0.1981   170.3
14.2500     -17370.2926  -17370.6265       0.3339   287.1
14.5000     -17370.4337  -17370.8189       0.3852   331.1
14.7500     -17370.4212  -17370.6635       0.2422   208.2
15.0000     -17370.3623  -17370.5858       0.2235   192.1
15.2500     -17370.3642  -17370.7368       0.3726   320.3
15.5000     -17370.3289  -17370.6236       0.2947   253.3
15.7500     -17370.5241  -17370.7138       0.1898   163.1
16.0000     -17370.3740  -17370.6403       0.2663   228.9
16.2500     -17370.1590  -17370.4724       0.3134   269.4
16.5000     -17370.1494  -17370.5727       0.4233   363.8
16.7500     -17370.2316  -17370.5609       0.3293   283.1
17.0000     -17370.3883  -17370.6526       0.2643   227.2
17.2500     -17370.3354  -17370.7158       0.3805   327.1
17.5000     -17370.1746  -17370.6389       0.4643   399.1
17.7500     -17370.6070  -17370.9106       0.3036   261.0
18.0000     -17370.5436  -17370.7718       0.2282   196.2
18.2500     -17370.5135  -17370.7864       0.2729   234.6
18.5000     -17370.4785  -17370.7767       0.2982   256.3
18.7500     -17370.4540  -17370.8175       0.3636   312.5
19.0000     -17370.3163  -17370.7035       0.3872   332.9
19.2500     -17370.5626  -17370.8139       0.2513   216.0
19.5000     -17370.5637  -17370.8589       0.2951   253.7
19.7500     -17370.4092  -17370.9210       0.5118   440.0
20.0000     -17370.3774  -17370.7637       0.3863   332.1
20.2500     -17370.1924  -17370.6085       0.4161   357.7
20.5000     -17370.3849  -17370.8169       0.4320   371.3
20.7500     -17370.2990  -17370.7718       0.4728   406.4
21.0000     -17370.2835  -17370.6228       0.3392   291.6
21.2500     -17370.3078  -17370.6864       0.3786   325.4
21.5000     -17370.5075  -17370.7847       0.2771   238.2
21.7500     -17370.4686  -17370.7981       0.3295   283.2
22.0000     -17370.2173  -17370.7486       0.5313   456.7
22.2500     -17370.1474  -17370.5426       0.3953   339.8
22.5000     -17370.3569  -17370.8106       0.4537   390.0
22.7500     -17370.2308  -17370.6346       0.4039   347.2
23.0000     -17370.6639  -17370.8940       0.2300   197.7
23.2500     -17370.4863  -17370.7874       0.3011   258.9
23.5000     -17370.3795  -17370.7694       0.3900   335.2
23.7500     -17370.4434  -17370.7733       0.3299   283.6
24.0000     -17370.3064  -17370.8206       0.5142   442.0
24.2500     -17370.4147  -17370.8173       0.4026   346.1
24.5000     -17370.4061  -17370.7584       0.3524   302.9
24.7500     -17370.2662  -17370.7130       0.4468   384.1
25.0000     -17370.3792  -17370.9243       0.5451   468.6
25.2500     -17370.3920  -17370.8286       0.4366   375.3
25.5000     -17370.2405  -17370.8738       0.6332   544.3
25.7500     -17370.3304  -17370.7986       0.4683   402.5
26.0000     -17370.6450  -17370.8568       0.2118   182.0
26.2500     -17370.4789  -17370.8504       0.3715   319.4
26.5000     -17370.3928  -17370.8367       0.4440   381.6
26.7500     -17370.4449  -17370.7841       0.3391   291.5
27.0000     -17370.3165  -17370.9361       0.6196   532.6
27.2500     -17370.2561  -17370.6954       0.4393   377.6
27.5000     -17370.3885  -17370.7661       0.3776   324.6
27.7500     -17370.2948  -17370.8325       0.5377   462.2
28.0000     -17370.3978  -17370.8071       0.4093   351.8
28.2500     -17370.4077  -17370.6725       0.2647   227.6
28.5000     -17370.6915  -17370.8949       0.2035   174.9
28.7500     -17370.0951  -17370.4445       0.3494   300.3
29.0000     -17370.3514  -17370.7297       0.3783   325.2
29.2500     -17370.3350  -17370.8170       0.4821   414.4
29.5000     -17370.2939  -17370.8233       0.5294   455.0
29.7500     -17370.4048  -17370.7813       0.3765   323.6
30.0000     -17370.3454  -17370.7492       0.4038   347.1
30.2500     -17370.5025  -17370.8379       0.3354   288.3
30.5000     -17370.3637  -17370.7580       0.3943   339.0
30.7500     -17370.4422  -17370.7632       0.3210   275.9
31.0000     -17370.5435  -17370.8064       0.2629   226.0
31.2500     -17370.4024  -17370.8250       0.4226   363.3
31.5000     -17370.6424  -17370.8599       0.2175   186.9
31.7500     -17370.4289  -17370.8651       0.4362   375.0
32.0000     -17370.5941  -17370.8304       0.2364   203.2
32.2500     -17370.6070  -17370.9085       0.3014   259.1
32.5000     -17370.5774  -17370.9019       0.3246   279.0
32.7500     -17370.3602  -17370.7584       0.3982   342.3
33.0000     -17370.2581  -17370.8424       0.5843   502.3
33.2500     -17370.5326  -17370.8514       0.3188   274.1
33.5000     -17370.4494  -17370.8144       0.3650   313.8
33.7500     -17370.4306  -17370.7995       0.3689   317.1
34.0000     -17370.6315  -17370.9536       0.3221   276.9
34.2500     -17370.3088  -17370.8176       0.5088   437.4
34.5000     -17370.5267  -17370.8476       0.3210   275.9
34.7500     -17370.5548  -17370.7679       0.2131   183.2
35.0000     -17370.3317  -17370.6234       0.2917   250.8
35.2500     -17370.4680  -17370.8085       0.3405   292.7
35.5000     -17370.4340  -17370.8416       0.4075   350.3
35.7500     -17370.3999  -17370.8265       0.4266   366.7
36.0000     -17370.4410  -17370.7830       0.3420   294.0
36.2500     -17370.4839  -17370.7645       0.2806   241.2
36.5000     -17370.6346  -17370.9382       0.3036   261.0
36.7500     -17370.3775  -17370.8020       0.4245   364.9
37.0000     -17370.4369  -17370.8552       0.4183   359.6
37.2500     -17370.3007  -17370.7533       0.4526   389.1
37.5000     -17370.4415  -17370.9131       0.4716   405.4
37.7500     -17370.1740  -17370.6408       0.4668   401.3
38.0000     -17370.6341  -17370.8972       0.2632   226.2
38.2500     -17370.6178  -17370.8072       0.1894   162.8
38.5000     -17370.4595  -17370.7758       0.3163   271.9
38.7500     -17370.4177  -17370.7620       0.3443   295.9
39.0000     -17370.3109  -17370.6821       0.3713   319.1
39.2500     -17370.1046  -17370.5855       0.4809   413.4
39.5000     -17370.3568  -17370.8013       0.4445   382.1
39.7500     -17370.3836  -17370.7922       0.4086   351.2
40.0000     -17370.5247  -17370.6662       0.1415   121.7
