Time[ps]      Etot[eV]     Epot[eV]     Ekin[eV]    T[K]
0.0000      -17370.1680  -17370.4124       0.2444   210.1
0.2500      -17370.0179  -17370.3027       0.2848   244.9
0.5000      -17369.9703  -17370.2098       0.2395   205.9
0.7500      -17370.1110  -17370.2896       0.1786   153.5
1.0000      -17369.8844  -17370.1391       0.2547   219.0
1.2500      -17369.6766  -17369.9745       0.2979   256.1
1.5000      -17369.8119  -17370.0484       0.2365   203.3
1.7500      -17369.9158  -17370.2216       0.3059   262.9
2.0000      -17370.0067  -17370.5021       0.4954   425.8
2.2500      -17370.3644  -17370.7917       0.4272   367.3
2.5000      -17370.7662  -17371.1017       0.3355   288.4
2.7500      -17370.8983  -17371.1672       0.2689   231.1
3.0000      -17370.7540  -17371.0360       0.2820   242.4
3.2500      -17370.9065  -17371.2020       0.2955   254.0
3.5000      -17370.8925  -17371.1865       0.2941   252.8
3.7500      -17370.9205  -17371.2656       0.3452   296.7
4.0000      -17370.6009  -17371.1335       0.5326   457.8
4.2500      -17370.8661  -17371.2511       0.3850   330.9
4.5000      -17370.9299  -17371.2307       0.3007   258.5
4.7500      -17370.7377  -17371.1686       0.4309   370.4
5.0000      -17370.9220  -17371.2390       0.3170   272.5
5.2500      -17370.8947  -17371.2078       0.3130   269.1
5.5000      -17370.8782  -17371.2462       0.3680   316.3
5.7500      -17370.6108  -17371.1393       0.5285   454.3
6.0000      -17370.8479  -17371.2415       0.3935   338.3
6.2500      -17370.7719  -17371.1927       0.4207   361.7
6.5000      -17370.8713  -17371.2202       0.3489   299.9
6.7500      -17370.8490  -17371.1680       0.3191   274.3
7.0000      -17370.9975  -17371.2861       0.2886   248.1
7.2500      -17371.0133  -17371.2482       0.2350   202.0
7.5000      -17370.9834  -17371.2417       0.2582   222.0
7.7500      -17370.8060  -17371.1838       0.3778   324.8
8.0000      -17370.9113  -17371.2077       0.2964   254.8
8.2500      -17370.8310  -17371.2734       0.4425   380.3
8.5000      -17370.8783  -17371.1904       0.3121   268.3
8.7500      -17370.8007  -17371.2424       0.4417   379.7
9.0000      -17370.9641  -17371.2670       0.3029   260.4
9.2500      -17370.9491  -17371.2147       0.2656   228.3
9.5000      -17370.8367  -17371.1752       0.3384   290.9
9.7500      -17370.8738  -17371.2138       0.3400   292.3
10.0000     -17370.6482  -17371.0189       0.3707   318.7
10.2500     -17370.8742  -17371.2851       0.4109   353.2
10.5000     -17370.9230  -17371.0821       0.1591   136.8
10.7500     -17370.9139  -17371.2140       0.3001   258.0
11.0000     -17370.8236  -17371.1273       0.3037   261.0
11.2500     -17370.9398  -17371.1490       0.2092   179.8
11.5000     -17370.8319  -17371.2653       0.4334   372.6
11.7500     -17370.8001  -17371.1082       0.3081   264.8
12.0000     -17370.7097  -17371.0085       0.2988   256.8
12.2500     -17370.7083  -17371.1015       0.3932   338.0
12.5000     -17370.8202  -17371.1399       0.3198   274.9
12.7500     -17370.9052  -17371.1739       0.2687   230.9
13.0000     -17370.8406  -17371.1631       0.3226   277.3
13.2500     -17370.7765  -17371.1692       0.3927   337.6
13.5000     -17370.8917  -17371.1380       0.2463   211.7
13.7500     -17370.8484  -17371.1590       0.3106   267.0
14.0000     -17370.9438  -17371.2437       0.2999   257.8
14.2500     -17370.9131  -17371.1247       0.2117   181.9
14.5000     -17370.6733  -17371.1249       0.4516   388.2
14.7500     -17370.9049  -17371.2075       0.3026   260.1
15.0000     -17371.0015  -17371.1612       0.1597   137.3
15.2500     -17370.8641  -17371.1977       0.3336   286.8
15.5000     -17370.7169  -17371.0455       0.3285   282.4
15.7500     -17370.6708  -17371.0819       0.4111   353.4
16.0000     -17370.9466  -17371.1862       0.2396   206.0
16.2500     -17370.6938  -17371.1906       0.4967   427.0
16.5000     -17370.6798  -17371.2008       0.5209   447.8
16.7500     -17370.5784  -17371.0988       0.5203   447.3
17.0000     -17370.9973  -17371.2537       0.2564   220.4
17.2500     -17370.7711  -17371.2366       0.4655   400.1
17.5000     -17370.8583  -17371.1138       0.2556   219.7
17.7500     -17370.7680  -17371.1399       0.3719   319.6
18.0000     -17370.8713  -17371.1082       0.2370   203.7
18.2500     -17370.7824  -17371.2074       0.4250   365.4
18.5000     -17370.9156  -17371.2183       0.3027   260.2
18.7500     -17370.7570  -17371.1322       0.3752   322.5
19.0000     -17370.6960  -17371.0839       0.3879   333.4
19.2500     -17370.7414  -17371.0787       0.3373   289.9
19.5000     -17370.8320  -17371.1166       0.2846   244.6
19.7500     -17370.7420  -17371.2958       0.5538   476.1
20.0000     -17370.9145  -17371.1533       0.2388   205.3
20.2500     -17370.7477  -17371.1385       0.3908   335.9
20.5000     -17370.9047  -17371.2125       0.3078   264.6
20.7500     -17370.9244  -17371.1824       0.2580   221.8
21.0000     -17370.9165  -17371.2299       0.3134   269.4
21.2500     -17370.8358  -17371.2791       0.4433   381.1
21.5000     -17370.8192  -17371.2340       0.4148   356.6
21.7500     -17370.6843  -17371.2012       0.5170   444.4
22.0000     -17370.9802  -17371.2370       0.2568   220.7
22.2500     -17370.9732  -17371.1999       0.2267   194.8
22.5000     -17370.8351  -17371.2129       0.3778   324.7
22.7500     -17370.9007  -17371.2872       0.3865   332.2
23.0000     -17370.7783  -17371.1124       0.3341   287.2
23.2500     -17370.9542  -17371.1928       0.2387   205.1
23.5000     -17370.9599  -17371.2603       0.3003   258.2
23.7500     -17370.7880  -17371.2644       0.4764   409.5
24.0000     -17370.9224  -17371.2577       0.3353   288.2
24.2500     -17370.6267  -17371.2047       0.5780   496.8
24.5000     -17370.8240  -17371.1415       0.3175   272.9
24.7500     -17370.8555  -17371.1302       0.2747   236.1
25.0000     -17370.8489  -17371.0868       0.2379   204.5
25.2500     -17370.6797  -17371.0951       0.4154   357.1
25.5000     -17370.8133  -17371.1657       0.3524   302.9
25.7500     -17370.9609  -17371.1998       0.2390   205.4
26.0000     -17370.9059  -17371.1744       0.2685   230.8
26.2500     -17370.7690  -17370.9848       0.2158   185.5
26.5000     -17370.5303  -17371.0292       0.4989   428.8
26.7500     -17370.7488  -17371.1965       0.4477   384.9
27.0000     -17370.7813  -17371.1940       0.4127   354.8
27.2500     -17370.6080  -17371.1775       0.5695   489.6
27.5000     -17370.6833  -17371.1289       0.4456   383.0
27.7500     -17370.5034  -17371.0434       0.5400   464.2
28.0000     -17370.8773  -17371.1745       0.2972   255.5
28.2500     -17370.8465  -17371.1944       0.3479   299.1
28.5000     -17370.9928  -17371.2232       0.2304   198.1
28.7500     -17370.8066  -17371.1416       0.3350   287.9
29.0000     -17370.6680  -17371.0861       0.4181   359.4
29.2500     -17370.6976  -17371.1103       0.4127   354.8
29.5000     -17370.8766  -17371.1749       0.2983   256.4
29.7500     -17370.6098  -17371.0414       0.4316   371.0
30.0000     -17370.8413  -17371.1704       0.3291   282.9
30.2500     -17370.7992  -17371.0678       0.2686   230.9
30.5000     -17370.9240  -17371.1384       0.2144   184.3
30.7500     -17370.8526  -17371.0911       0.2386   205.1
31.0000     -17370.7574  -17371.0980       0.3407   292.8
31.2500     -17370.3608  -17370.9475       0.5868   504.4
31.5000     -17370.6972  -17370.9690       0.2719   233.7
31.7500     -17370.5353  -17371.0695       0.5342   459.2
32.0000     -17370.8139  -17371.1103       0.2964   254.8
32.2500     -17370.4887  -17370.9370       0.4484   385.4
32.5000     -17370.6572  -17371.0595       0.4023   345.8
32.7500     -17370.7629  -17371.0320       0.2691   231.3
33.0000     -17370.8225  -17371.2028       0.3803   326.9
33.2500     -17370.7799  -17371.1532       0.3733   320.9
33.5000     -17370.7981  -17371.0076       0.2096   180.1
33.7500     -17370.7848  -17371.0111       0.2263   194.5
34.0000     -17370.7147  -17370.9700       0.2552   219.4
34.2500     -17370.6203  -17371.0423       0.4219   362.7
34.5000     -17370.8983  -17371.0833       0.1849   159.0
34.7500     -17370.6197  -17371.0600       0.4403   378.5
35.0000     -17370.7208  -17371.1475       0.4266   366.7
35.2500     -17370.7213  -17371.0773       0.3560   306.0
35.5000     -17370.7344  -17371.1029       0.3685   316.8
35.7500     -17370.7730  -17371.1374       0.3645   313.3
36.0000     -17370.5739  -17371.0462       0.4723   406.0
36.2500     -17370.7100  -17371.1099       0.3999   343.8
36.5000     -17370.5964  -17371.0332       0.4368   375.5
36.7500     -17370.8748  -17371.1584       0.2836   243.8
37.0000     -17370.6482  -17371.0051       0.3569   306.8
37.2500     -17370.5651  -17371.1134       0.5483   471.3
37.5000     -17370.7897  -17371.1101       0.3204   275.4
37.7500     -17370.7397  -17371.1204       0.3807   327.2
38.0000     -17370.7733  -17371.0509       0.2775   238.6
38.2500     -17370.7245  -17371.1514       0.4269   367.0
38.5000     -17370.6617  -17371.0220       0.3603   309.7
38.7500     -17370.8491  -17371.2053       0.3562   306.2
39.0000     -17370.7405  -17371.0413       0.3008   258.6
39.2500     -17370.7029  -17370.9839       0.2810   241.5
39.5000     -17370.8449  -17371.1801       0.3352   288.1
39.7500     -17370.7834  -17371.0334       0.2501   215.0
40.0000     -17370.7905  -17371.1938       0.4033   346.7
