Time[ps]      Etot[eV]     Epot[eV]     Ekin[eV]    T[K]
0.0000      -17370.1531  -17370.4124       0.2593   222.9
0.2500      -17369.8827  -17370.3366       0.4538   390.1
0.5000      -17369.9774  -17370.3097       0.3322   285.6
0.7500      -17369.9019  -17370.3423       0.4404   378.5
1.0000      -17369.8286  -17370.2299       0.4013   345.0
1.2500      -17369.6595  -17370.0615       0.4019   345.5
1.5000      -17369.7380  -17370.1203       0.3824   328.7
1.7500      -17369.8789  -17370.2808       0.4019   345.5
2.0000      -17370.0141  -17370.5946       0.5806   499.1
2.2500      -17370.5606  -17370.9808       0.4203   361.3
2.5000      -17371.0922  -17371.3748       0.2825   242.9
2.7500      -17371.0649  -17371.4184       0.3536   303.9
3.0000      -17371.0339  -17371.4293       0.3954   339.9
3.2500      -17370.8029  -17371.2369       0.4340   373.0
3.5000      -17371.1353  -17371.4182       0.2829   243.2
3.7500      -17371.0560  -17371.3357       0.2797   240.4
4.0000      -17371.1475  -17371.3827       0.2352   202.2
4.2500      -17371.0330  -17371.4199       0.3869   332.6
4.5000      -17371.0968  -17371.4428       0.3460   297.4
4.7500      -17371.1316  -17371.4045       0.2729   234.6
5.0000      -17371.0194  -17371.3988       0.3794   326.1
5.2500      -17370.9007  -17371.3906       0.4899   421.1
5.5000      -17371.0035  -17371.3499       0.3464   297.8
5.7500      -17371.0010  -17371.3682       0.3672   315.7
6.0000      -17371.1199  -17371.3755       0.2556   219.7
6.2500      -17370.9706  -17371.3251       0.3545   304.8
6.5000      -17370.9283  -17371.2252       0.2969   255.2
6.7500      -17370.8760  -17371.2846       0.4086   351.2
7.0000      -17371.0136  -17371.4293       0.4157   357.4
7.2500      -17371.1432  -17371.4085       0.2653   228.1
7.5000      -17370.9071  -17371.3239       0.4168   358.3
7.7500      -17371.2063  -17371.3414       0.1350   116.1
8.0000      -17370.8777  -17371.3263       0.4486   385.6
8.2500      -17370.7210  -17371.2089       0.4879   419.4
8.5000      -17370.8269  -17371.2754       0.4484   385.4
8.7500      -17371.0281  -17371.2855       0.2574   221.3
9.0000      -17370.9767  -17371.3436       0.3669   315.4
9.2500      -17371.0073  -17371.3985       0.3912   336.3
9.5000      -17370.9614  -17371.2517       0.2903   249.6
9.7500      -17371.0812  -17371.3379       0.2567   220.7
10.0000     -17370.9698  -17371.2691       0.2993   257.2
10.2500     -17370.7732  -17371.3871       0.6139   527.7
10.5000     -17370.9631  -17371.4326       0.4695   403.6
10.7500     -17371.0223  -17371.4807       0.4584   394.0
11.0000     -17370.9207  -17371.3524       0.4318   371.2
11.2500     -17371.0228  -17371.3072       0.2844   244.5
11.5000     -17370.8166  -17371.3362       0.5196   446.7
11.7500     -17371.1551  -17371.4051       0.2500   214.9
12.0000     -17370.9553  -17371.4115       0.4562   392.2
12.2500     -17371.0983  -17371.4107       0.3124   268.5
12.5000     -17370.9433  -17371.2293       0.2860   245.9
12.7500     -17371.0945  -17371.3119       0.2174   186.9
13.0000     -17370.9134  -17371.2007       0.2873   247.0
13.2500     -17370.8969  -17371.2937       0.3968   341.1
13.5000     -17370.9705  -17371.4095       0.4390   377.4
13.7500     -17370.8283  -17371.2527       0.4244   364.8
14.0000     -17370.8867  -17371.1683       0.2816   242.1
14.2500     -17371.1226  -17371.4081       0.2855   245.4
14.5000     -17370.9965  -17371.3962       0.3997   343.5
14.7500     -17371.1243  -17371.4350       0.3107   267.1
15.0000     -17370.8947  -17371.2967       0.4021   345.6
15.2500     -17371.0448  -17371.4397       0.3949   339.5
15.5000     -17370.8781  -17371.3693       0.4912   422.2
15.7500     -17370.8272  -17371.2550       0.4278   367.7
16.0000     -17370.8007  -17371.1900       0.3893   334.7
16.2500     -17370.7882  -17371.2143       0.4260   366.2
16.5000     -17371.0027  -17371.2958       0.2931   251.9
16.7500     -17371.0289  -17371.2717       0.2427   208.7
17.0000     -17371.0150  -17371.3108       0.2957   254.2
17.2500     -17370.8736  -17371.2458       0.3722   319.9
17.5000     -17370.9005  -17371.4360       0.5355   460.3
17.7500     -17371.0136  -17371.3307       0.3171   272.6
18.0000     -17371.1301  -17371.3183       0.1882   161.8
18.2500     -17371.0659  -17371.4637       0.3979   342.0
18.5000     -17371.1816  -17371.3992       0.2176   187.1
18.7500     -17371.2034  -17371.3987       0.1953   167.9
19.0000     -17370.9670  -17371.2758       0.3088   265.4
19.2500     -17370.9968  -17371.3288       0.3319   285.3
19.5000     -17371.1414  -17371.4125       0.2711   233.0
19.7500     -17371.0848  -17371.3123       0.2276   195.6
20.0000     -17370.8700  -17371.3148       0.4447   382.3
20.2500     -17370.9772  -17371.2727       0.2956   254.1
20.5000     -17370.8025  -17371.3373       0.5348   459.7
20.7500     -17370.7307  -17371.1595       0.4287   368.5
21.0000     -17371.1542  -17371.4447       0.2904   249.7
21.2500     -17371.0078  -17371.3140       0.3062   263.2
21.5000     -17370.9618  -17371.2926       0.3308   284.4
21.7500     -17370.9003  -17371.3138       0.4136   355.5
22.0000     -17370.9246  -17371.2773       0.3527   303.2
22.2500     -17371.0866  -17371.3854       0.2988   256.9
22.5000     -17370.9709  -17371.3831       0.4121   354.3
22.7500     -17370.8557  -17371.3049       0.4492   386.1
23.0000     -17371.1666  -17371.4410       0.2744   235.8
23.2500     -17371.0869  -17371.4313       0.3443   296.0
23.5000     -17370.9598  -17371.2861       0.3263   280.5
23.7500     -17370.9944  -17371.3812       0.3868   332.5
24.0000     -17371.0415  -17371.3174       0.2759   237.2
24.2500     -17371.0913  -17371.3871       0.2958   254.2
24.5000     -17370.9745  -17371.4013       0.4268   366.8
24.7500     -17370.9363  -17371.4188       0.4826   414.8
25.0000     -17370.8249  -17371.3021       0.4772   410.2
25.2500     -17370.9907  -17371.3722       0.3816   328.0
25.5000     -17371.1552  -17371.4086       0.2534   217.8
25.7500     -17371.0679  -17371.3516       0.2837   243.9
26.0000     -17371.0090  -17371.2953       0.2863   246.1
26.2500     -17371.0281  -17371.3455       0.3174   272.9
26.5000     -17371.1476  -17371.3769       0.2293   197.1
26.7500     -17370.8108  -17371.2483       0.4376   376.1
27.0000     -17370.9199  -17371.3230       0.4030   346.5
27.2500     -17371.1255  -17371.4085       0.2830   243.3
27.5000     -17370.9967  -17371.3066       0.3099   266.4
27.7500     -17370.9253  -17371.2367       0.3114   267.7
28.0000     -17370.9730  -17371.3902       0.4172   358.6
28.2500     -17371.0735  -17371.3070       0.2335   200.7
28.5000     -17370.9507  -17371.3108       0.3602   309.6
28.7500     -17371.0119  -17371.3790       0.3671   315.5
29.0000     -17370.9662  -17371.2834       0.3171   272.6
29.2500     -17371.0591  -17371.3293       0.2703   232.3
29.5000     -17370.9814  -17371.2801       0.2987   256.8
29.7500     -17370.8459  -17371.3608       0.5149   442.6
30.0000     -17370.9758  -17371.3210       0.3452   296.8
30.2500     -17371.0799  -17371.3677       0.2878   247.3
30.5000     -17370.8764  -17371.3174       0.4410   379.1
30.7500     -17370.8211  -17371.2274       0.4062   349.2
31.0000     -17371.0346  -17371.3018       0.2672   229.7
31.2500     -17370.8775  -17371.3016       0.4241   364.6
31.5000     -17370.9315  -17371.2784       0.3469   298.2
31.7500     -17370.9827  -17371.3342       0.3515   302.2
32.0000     -17370.9481  -17371.2945       0.3464   297.8
32.2500     -17371.0683  -17371.3192       0.2509   215.6
32.5000     -17371.0849  -17371.4035       0.3186   273.9
32.7500     -17370.7613  -17371.3122       0.5509   473.5
33.0000     -17370.7191  -17371.2604       0.5413   465.3
33.2500     -17370.8198  -17371.3474       0.5277   453.6
33.5000     -17370.8535  -17371.3531       0.4996   429.5
33.7500     -17371.0196  -17371.3794       0.3598   309.3
34.0000     -17370.9652  -17371.3614       0.3962   340.6
34.2500     -17371.0065  -17371.3569       0.3504   301.2
34.5000     -17371.0684  -17371.3349       0.2665   229.1
34.7500     -17370.7754  -17371.1604       0.3850   331.0
35.0000     -17370.8676  -17371.3555       0.4880   419.5
35.2500     -17370.8570  -17371.2782       0.4212   362.1
35.5000     -17371.1463  -17371.3255       0.1792   154.1
35.7500     -17370.9928  -17371.2177       0.2250   193.4
36.0000     -17370.8079  -17371.2342       0.4263   366.4
36.2500     -17371.0159  -17371.2811       0.2652   227.9
36.5000     -17371.0074  -17371.2576       0.2502   215.0
36.7500     -17370.9392  -17371.3008       0.3616   310.8
37.0000     -17371.1743  -17371.3131       0.1388   119.3
37.2500     -17370.8793  -17371.2450       0.3658   314.4
37.5000     -17370.8341  -17371.2756       0.4415   379.5
37.7500     -17370.9482  -17371.3439       0.3957   340.1
38.0000     -17370.7804  -17371.1928       0.4124   354.5
38.2500     -17370.9787  -17371.3264       0.3477   298.9
38.5000     -17370.9607  -17371.3421       0.3814   327.9
38.7500     -17371.0310  -17371.3001       0.2690   231.3
39.0000     -17371.0444  -17371.4032       0.3588   308.4
39.2500     -17370.8776  -17371.2291       0.3515   302.2
39.5000     -17371.0750  -17371.4148       0.3397   292.0
39.7500     -17371.0025  -17371.3342       0.3317   285.1
40.0000     -17371.1065  -17371.3134       0.2069   177.8
