Time[ps]      Etot[eV]     Epot[eV]     Ekin[eV]    T[K]
0.0000      -17369.9605  -17370.4124       0.4519   388.4
0.2500      -17369.7779  -17370.2309       0.4530   389.4
0.5000      -17370.0734  -17370.2738       0.2003   172.2
0.7500      -17369.9214  -17370.2551       0.3337   286.8
1.0000      -17369.9109  -17370.1901       0.2792   240.0
1.2500      -17369.9276  -17370.3183       0.3908   335.9
1.5000      -17369.8049  -17370.2627       0.4578   393.5
1.7500      -17369.8331  -17370.1346       0.3015   259.2
2.0000      -17369.6324  -17370.0889       0.4565   392.4
2.2500      -17369.5619  -17370.1291       0.5672   487.6
2.5000      -17369.7988  -17370.2822       0.4835   415.6
2.7500      -17369.9366  -17370.2210       0.2844   244.4
3.0000      -17369.6522  -17370.2015       0.5494   472.2
3.2500      -17369.8208  -17370.2793       0.4584   394.0
3.5000      -17370.0005  -17370.2959       0.2955   254.0
3.7500      -17369.9736  -17370.2155       0.2419   207.9
4.0000      -17369.8471  -17370.1893       0.3422   294.2
4.2500      -17369.8799  -17370.1800       0.3002   258.0
4.5000      -17369.9509  -17370.2204       0.2695   231.6
4.7500      -17369.8554  -17370.3017       0.4463   383.6
5.0000      -17369.8424  -17370.2496       0.4072   350.0
5.2500      -17369.8214  -17370.2928       0.4715   405.3
5.5000      -17370.0166  -17370.2487       0.2321   199.5
5.7500      -17369.8330  -17370.2873       0.4543   390.5
6.0000      -17369.8476  -17370.3043       0.4568   392.6
6.2500      -17369.9568  -17370.2063       0.2495   214.5
6.5000      -17369.7667  -17370.1857       0.4190   360.2
6.7500      -17369.8302  -17370.2896       0.4593   394.8
7.0000      -17369.8628  -17370.2440       0.3812   327.7
7.2500      -17370.1116  -17370.3418       0.2302   197.9
7.5000      -17369.8662  -17370.1942       0.3280   281.9
7.7500      -17369.8959  -17370.2623       0.3664   314.9
8.0000      -17370.0005  -17370.3525       0.3520   302.6
8.2500      -17369.9238  -17370.2006       0.2767   237.9
8.5000      -17369.7552  -17370.1694       0.4141   356.0
8.7500      -17369.7737  -17370.2669       0.4932   424.0
9.0000      -17370.0379  -17370.3241       0.2862   246.0
9.2500      -17369.9668  -17370.2957       0.3289   282.7
9.5000      -17369.8914  -17370.2298       0.3384   290.9
9.7500      -17370.0060  -17370.3335       0.3275   281.5
10.0000     -17369.8078  -17370.1950       0.3872   332.8
10.2500     -17369.9775  -17370.2495       0.2721   233.9
10.5000     -17369.8610  -17370.2136       0.3525   303.0
10.7500     -17369.9301  -17370.1976       0.2675   230.0
11.0000     -17370.0137  -17370.2921       0.2783   239.3
11.2500     -17369.8825  -17370.2076       0.3252   279.5
11.5000     -17369.9233  -17370.2447       0.3214   276.3
11.7500     -17370.0783  -17370.2554       0.1771   152.3
12.0000     -17370.0297  -17370.3796       0.3500   300.8
12.2500     -17369.8109  -17370.1994       0.3885   334.0
12.5000     -17369.7987  -17370.0903       0.2916   250.7
12.7500     -17369.8420  -17370.2221       0.3802   326.8
13.0000     -17369.9453  -17370.2791       0.3338   286.9
13.2500     -17369.8938  -17370.2875       0.3937   338.4
13.5000     -17369.9268  -17370.2957       0.3689   317.1
13.7500     -17370.0174  -17370.2510       0.2336   200.8
14.0000     -17369.8539  -17370.3186       0.4647   399.4
14.2500     -17369.7705  -17370.1959       0.4254   365.7
14.5000     -17369.7703  -17370.1797       0.4093   351.9
14.7500     -17369.9426  -17370.3680       0.4254   365.6
15.0000     -17369.9479  -17370.2349       0.2870   246.7
15.2500     -17370.0064  -17370.2355       0.2291   196.9
15.5000     -17369.8854  -17370.2996       0.4142   356.0
15.7500     -17369.9149  -17370.2598       0.3449   296.5
16.0000     -17369.8808  -17370.1502       0.2694   231.6
16.2500     -17369.8699  -17370.2626       0.3927   337.5
16.5000     -17370.0436  -17370.2311       0.1874   161.1
16.7500     -17369.7930  -17370.1197       0.3267   280.9
17.0000     -17369.8734  -17370.1704       0.2970   255.3
17.2500     -17369.9214  -17370.1548       0.2334   200.6
17.5000     -17369.8464  -17370.2685       0.4221   362.8
17.7500     -17369.9150  -17370.2197       0.3047   261.9
18.0000     -17370.0218  -17370.1756       0.1538   132.2
18.2500     -17369.9917  -17370.2372       0.2456   211.1
18.5000     -17369.6588  -17370.1436       0.4848   416.8
18.7500     -17369.8698  -17370.1998       0.3299   283.6
19.0000     -17369.8922  -17370.1400       0.2478   213.0
19.2500     -17369.8354  -17370.0869       0.2516   216.2
19.5000     -17369.8789  -17370.2095       0.3306   284.2
19.7500     -17369.6637  -17370.1472       0.4835   415.6
20.0000     -17369.8460  -17370.2538       0.4078   350.6
20.2500     -17369.7152  -17370.0818       0.3667   315.2
20.5000     -17369.9336  -17370.1115       0.1779   152.9
20.7500     -17369.9162  -17370.3093       0.3931   337.9
21.0000     -17369.6331  -17370.0796       0.4466   383.9
21.2500     -17369.9277  -17370.1764       0.2486   213.7
21.5000     -17369.6904  -17370.1224       0.4320   371.4
21.7500     -17369.8141  -17370.1196       0.3055   262.6
22.0000     -17369.5729  -17370.0158       0.4428   380.7
22.2500     -17369.8655  -17370.1555       0.2901   249.3
22.5000     -17369.8870  -17370.1797       0.2928   251.7
22.7500     -17369.6813  -17370.1203       0.4390   377.4
23.0000     -17369.9022  -17370.2246       0.3225   277.2
23.2500     -17369.6188  -17370.0686       0.4498   386.6
23.5000     -17369.9618  -17370.2874       0.3256   279.9
23.7500     -17369.8464  -17370.1069       0.2605   223.9
24.0000     -17369.9622  -17370.2424       0.2802   240.8
24.2500     -17369.8751  -17370.2547       0.3796   326.3
24.5000     -17369.9011  -17370.2689       0.3678   316.1
24.7500     -17369.7483  -17370.2450       0.4967   427.0
25.0000     -17369.5373  -17370.1844       0.6472   556.3
25.2500     -17369.8883  -17370.2351       0.3468   298.1
25.5000     -17369.7141  -17370.1250       0.4109   353.2
25.7500     -17369.7729  -17370.2320       0.4590   394.6
26.0000     -17369.9490  -17370.2838       0.3348   287.8
26.2500     -17369.8136  -17370.2531       0.4395   377.7
26.5000     -17369.8209  -17370.1622       0.3413   293.4
26.7500     -17369.7436  -17370.1407       0.3971   341.4
27.0000     -17369.6501  -17370.1691       0.5190   446.1
27.2500     -17370.0855  -17370.3543       0.2687   231.0
27.5000     -17370.0217  -17370.3523       0.3306   284.2
27.7500     -17370.0138  -17370.1824       0.1686   144.9
28.0000     -17369.8842  -17370.2225       0.3383   290.8
28.2500     -17369.7066  -17370.0981       0.3915   336.5
28.5000     -17369.8689  -17370.2345       0.3656   314.3
28.7500     -17369.6471  -17370.0257       0.3785   325.4
29.0000     -17369.6050  -17370.0043       0.3994   343.3
29.2500     -17369.7844  -17370.0727       0.2883   247.8
29.5000     -17369.7672  -17370.2313       0.4640   398.9
29.7500     -17369.8536  -17370.2378       0.3843   330.3
30.0000     -17369.7031  -17370.1465       0.4434   381.2
30.2500     -17369.6826  -17370.3048       0.6223   534.9
30.5000     -17369.9003  -17370.2760       0.3757   322.9
30.7500     -17369.8280  -17370.1878       0.3598   309.3
31.0000     -17369.9913  -17370.1294       0.1381   118.7
31.2500     -17369.7736  -17370.1047       0.3311   284.6
31.5000     -17369.8337  -17370.1860       0.3523   302.8
31.7500     -17369.6991  -17370.1734       0.4742   407.7
32.0000     -17369.5459  -17370.0497       0.5038   433.0
32.2500     -17369.7336  -17370.2203       0.4867   418.4
32.5000     -17369.7764  -17370.0953       0.3189   274.1
32.7500     -17369.7015  -17370.1469       0.4455   382.9
33.0000     -17369.7363  -17370.1770       0.4407   378.8
33.2500     -17369.8404  -17370.1553       0.3149   270.7
33.5000     -17369.9922  -17370.2149       0.2227   191.4
33.7500     -17369.6788  -17370.1045       0.4257   366.0
34.0000     -17369.8574  -17370.1528       0.2954   253.9
34.2500     -17369.9090  -17370.1883       0.2792   240.0
34.5000     -17369.7563  -17370.0702       0.3138   269.8
34.7500     -17369.7374  -17370.0357       0.2984   256.5
35.0000     -17369.5875  -17370.0700       0.4825   414.8
35.2500     -17369.7484  -17370.2079       0.4595   395.0
35.5000     -17369.9771  -17370.2351       0.2580   221.8
35.7500     -17370.0318  -17370.2393       0.2075   178.3
36.0000     -17369.7344  -17370.0252       0.2908   250.0
36.2500     -17369.8580  -17370.1299       0.2719   233.7
36.5000     -17369.9314  -17370.3110       0.3797   326.4
36.7500     -17370.0215  -17370.3018       0.2804   241.0
37.0000     -17369.8923  -17370.2488       0.3565   306.4
37.2500     -17369.9317  -17370.1513       0.2196   188.7
37.5000     -17369.8892  -17370.2426       0.3534   303.8
37.7500     -17369.8712  -17370.1377       0.2665   229.1
38.0000     -17369.8135  -17370.1670       0.3536   303.9
38.2500     -17370.0249  -17370.2871       0.2622   225.4
38.5000     -17369.7400  -17370.0743       0.3343   287.4
38.7500     -17369.7492  -17370.0181       0.2689   231.2
39.0000     -17369.9710  -17370.1842       0.2133   183.3
39.2500     -17369.9536  -17370.2373       0.2837   243.9
39.5000     -17369.7450  -17370.1637       0.4187   359.9
39.7500     -17369.8061  -17370.2151       0.4090   351.5
40.0000     -17369.8369  -17370.2303       0.3934   338.2
