Time[ps]      Etot[eV]     Epot[eV]     Ekin[eV]    T[K]
0.0000      -17370.0378  -17370.4124       0.3746   322.0
0.2500      -17369.7634  -17369.9762       0.2128   182.9
0.5000      -17369.7541  -17370.1852       0.4311   370.5
0.7500      -17369.9220  -17370.1991       0.2770   238.1
1.0000      -17369.8079  -17370.1771       0.3692   317.4
1.2500      -17369.7610  -17370.0786       0.3176   273.0
1.5000      -17369.6512  -17370.0724       0.4213   362.1
1.7500      -17370.0047  -17370.3134       0.3087   265.4
2.0000      -17370.6417  -17370.9774       0.3358   288.6
2.2500      -17371.1062  -17371.3022       0.1960   168.5
2.5000      -17371.1864  -17371.4885       0.3020   259.6
2.7500      -17370.9877  -17371.4319       0.4442   381.8
3.0000      -17371.0003  -17371.3976       0.3973   341.6
3.2500      -17371.0428  -17371.3672       0.3244   278.8
3.5000      -17370.9259  -17371.3687       0.4428   380.6
3.7500      -17370.8588  -17371.2244       0.3656   314.2
4.0000      -17371.0571  -17371.3676       0.3105   266.9
4.2500      -17371.1375  -17371.3879       0.2504   215.3
4.5000      -17371.2902  -17371.4633       0.1731   148.8
4.7500      -17371.0325  -17371.3534       0.3209   275.8
5.0000      -17371.1661  -17371.5073       0.3412   293.3
5.2500      -17370.7813  -17371.3449       0.5637   484.5
5.5000      -17371.0341  -17371.3362       0.3022   259.7
5.7500      -17370.9268  -17371.2435       0.3167   272.2
6.0000      -17370.8827  -17371.4217       0.5391   463.4
6.2500      -17370.9794  -17371.4648       0.4854   417.2
6.5000      -17370.8916  -17371.2311       0.3395   291.8
6.7500      -17370.8742  -17371.4546       0.5804   498.9
7.0000      -17371.1041  -17371.3400       0.2359   202.8
7.2500      -17371.0898  -17371.3337       0.2439   209.7
7.5000      -17371.0355  -17371.3848       0.3493   300.3
7.7500      -17370.8418  -17371.3316       0.4898   421.0
8.0000      -17370.9238  -17371.3094       0.3856   331.5
8.2500      -17370.9650  -17371.3485       0.3835   329.6
8.5000      -17371.2344  -17371.4951       0.2608   224.1
8.7500      -17371.0691  -17371.2791       0.2100   180.5
9.0000      -17371.0947  -17371.4618       0.3671   315.5
9.2500      -17371.1763  -17371.3779       0.2016   173.3
9.5000      -17370.9405  -17371.3619       0.4214   362.2
9.7500      -17371.2391  -17371.4876       0.2484   213.5
10.0000     -17370.9298  -17371.1368       0.2070   177.9
10.2500     -17370.9454  -17371.4610       0.5156   443.2
10.5000     -17370.9333  -17371.3184       0.3851   331.0
10.7500     -17370.9146  -17371.2451       0.3305   284.1
11.0000     -17371.0331  -17371.4209       0.3878   333.3
11.2500     -17371.0141  -17371.3715       0.3575   307.3
11.5000     -17371.0826  -17371.4630       0.3805   327.1
11.7500     -17370.9640  -17371.2791       0.3150   270.8
12.0000     -17371.2396  -17371.4907       0.2511   215.9
12.2500     -17371.0076  -17371.3800       0.3724   320.1
12.5000     -17370.7139  -17371.2790       0.5651   485.8
12.7500     -17370.9391  -17371.3330       0.3940   338.7
13.0000     -17370.9363  -17371.3045       0.3682   316.5
13.2500     -17370.7932  -17371.2535       0.4602   395.6
13.5000     -17370.8995  -17371.1677       0.2682   230.5
13.7500     -17370.9796  -17371.4174       0.4378   376.4
14.0000     -17371.1252  -17371.4572       0.3320   285.4
14.2500     -17371.0115  -17371.2721       0.2606   224.0
14.5000     -17370.9512  -17371.3830       0.4318   371.2
14.7500     -17371.0016  -17371.3572       0.3556   305.7
15.0000     -17371.3648  -17371.4708       0.1060    91.1
15.2500     -17371.1855  -17371.5133       0.3279   281.8
15.5000     -17371.0425  -17371.3585       0.3160   271.6
15.7500     -17371.1352  -17371.4027       0.2674   229.9
16.0000     -17371.0289  -17371.3636       0.3347   287.7
16.2500     -17370.5663  -17371.2190       0.6527   561.1
16.5000     -17370.8827  -17371.2909       0.4081   350.8
16.7500     -17370.7486  -17371.1479       0.3993   343.3
17.0000     -17370.9012  -17371.4477       0.5464   469.7
17.2500     -17370.8580  -17371.2492       0.3912   336.2
17.5000     -17371.0813  -17371.3505       0.2693   231.5
17.7500     -17371.0419  -17371.3728       0.3309   284.5
18.0000     -17371.0398  -17371.3945       0.3547   304.9
18.2500     -17371.1483  -17371.4746       0.3264   280.5
18.5000     -17371.0407  -17371.4049       0.3642   313.1
18.7500     -17370.9523  -17371.3682       0.4159   357.5
19.0000     -17370.9630  -17371.2358       0.2728   234.5
19.2500     -17371.1143  -17371.4046       0.2904   249.6
19.5000     -17370.9611  -17371.2983       0.3372   289.8
19.7500     -17371.0390  -17371.3799       0.3409   293.0
20.0000     -17371.1443  -17371.3653       0.2210   190.0
20.2500     -17371.1665  -17371.4874       0.3209   275.8
20.5000     -17370.7400  -17371.2578       0.5178   445.1
20.7500     -17371.0384  -17371.4034       0.3650   313.8
21.0000     -17371.0872  -17371.4004       0.3132   269.2
21.2500     -17371.0277  -17371.3696       0.3419   293.9
21.5000     -17371.0242  -17371.4259       0.4017   345.3
21.7500     -17371.1355  -17371.3615       0.2260   194.2
22.0000     -17370.8889  -17371.1755       0.2867   246.4
22.2500     -17370.9059  -17371.2684       0.3626   311.7
22.5000     -17370.8901  -17371.3502       0.4601   395.5
22.7500     -17371.1762  -17371.4441       0.2679   230.3
23.0000     -17371.0595  -17371.4974       0.4379   376.4
23.2500     -17371.1825  -17371.3867       0.2042   175.5
23.5000     -17370.9733  -17371.4169       0.4436   381.4
23.7500     -17371.0828  -17371.3234       0.2405   206.8
24.0000     -17371.2072  -17371.3367       0.1294   111.3
24.2500     -17370.7153  -17371.2957       0.5803   498.9
24.5000     -17370.9064  -17371.3866       0.4801   412.7
24.7500     -17370.9802  -17371.4151       0.4350   373.9
25.0000     -17370.9869  -17371.3580       0.3712   319.1
25.2500     -17370.8820  -17371.3663       0.4843   416.3
25.5000     -17370.6544  -17371.1995       0.5451   468.6
25.7500     -17370.7963  -17371.3206       0.5243   450.7
26.0000     -17370.8851  -17371.2840       0.3989   342.9
26.2500     -17371.0142  -17371.3538       0.3396   291.9
26.5000     -17370.9639  -17371.3951       0.4311   370.6
26.7500     -17371.0472  -17371.3731       0.3259   280.1
27.0000     -17370.7850  -17371.3426       0.5576   479.3
27.2500     -17370.8988  -17371.2844       0.3856   331.5
27.5000     -17370.7172  -17371.0679       0.3507   301.4
27.7500     -17370.9312  -17371.3494       0.4182   359.5
28.0000     -17371.2506  -17371.4717       0.2211   190.1
28.2500     -17370.9481  -17371.4398       0.4917   422.7
28.5000     -17370.9791  -17371.5406       0.5615   482.7
28.7500     -17371.0280  -17371.4211       0.3931   337.9
29.0000     -17371.0686  -17371.3578       0.2892   248.6
29.2500     -17371.0895  -17371.3808       0.2912   250.3
29.5000     -17370.9061  -17371.3632       0.4571   392.9
29.7500     -17371.0320  -17371.3707       0.3387   291.2
30.0000     -17370.9636  -17371.3121       0.3485   299.6
30.2500     -17370.8841  -17371.3796       0.4956   426.0
30.5000     -17371.1781  -17371.3742       0.1962   168.6
30.7500     -17370.9123  -17371.3087       0.3964   340.7
31.0000     -17371.0963  -17371.4879       0.3916   336.6
31.2500     -17370.9040  -17371.2873       0.3832   329.4
31.5000     -17371.1844  -17371.3796       0.1952   167.8
31.7500     -17371.0503  -17371.3369       0.2865   246.3
32.0000     -17370.9318  -17371.2584       0.3265   280.7
32.2500     -17371.0203  -17371.2837       0.2635   226.5
32.5000     -17371.1422  -17371.3580       0.2158   185.5
32.7500     -17371.0606  -17371.3467       0.2861   245.9
33.0000     -17371.2042  -17371.3374       0.1332   114.5
33.2500     -17370.9088  -17371.2740       0.3653   314.0
33.5000     -17370.7751  -17371.2799       0.5048   433.9
33.7500     -17370.9078  -17371.3231       0.4153   357.0
34.0000     -17371.0049  -17371.2905       0.2856   245.5
34.2500     -17370.9117  -17371.3449       0.4333   372.4
34.5000     -17370.9581  -17371.2950       0.3369   289.6
34.7500     -17370.9189  -17371.2889       0.3700   318.0
35.0000     -17370.9447  -17371.3318       0.3871   332.7
35.2500     -17371.0399  -17371.3953       0.3553   305.4
35.5000     -17370.9921  -17371.3615       0.3695   317.6
35.7500     -17370.9119  -17371.2391       0.3272   281.3
36.0000     -17370.8175  -17371.2758       0.4584   394.0
36.2500     -17371.0292  -17371.4505       0.4213   362.2
36.5000     -17370.8206  -17371.1270       0.3064   263.4
36.7500     -17371.1306  -17371.5006       0.3700   318.0
37.0000     -17371.0548  -17371.3065       0.2517   216.4
37.2500     -17371.0203  -17371.4055       0.3852   331.1
37.5000     -17371.1057  -17371.3556       0.2499   214.8
37.7500     -17371.0170  -17371.3996       0.3826   328.9
38.0000     -17371.0988  -17371.3955       0.2966   255.0
38.2500     -17370.9360  -17371.4625       0.5265   452.6
38.5000     -17371.2062  -17371.4262       0.2200   189.1
38.7500     -17370.8321  -17371.3032       0.4711   405.0
39.0000     -17370.8368  -17371.0705       0.2337   200.9
39.2500     -17370.9030  -17371.2750       0.3720   319.8
39.5000     -17370.9985  -17371.3130       0.3145   270.3
39.7500     -17371.0364  -17371.4356       0.3992   343.2
40.0000     -17370.9733  -17371.2113       0.2380   204.6
