Time[ps]      Etot[eV]     Epot[eV]     Ekin[eV]    T[K]
0.0000      -17369.9665  -17370.4124       0.4458   383.2
0.2500      -17370.0033  -17370.2849       0.2816   242.1
0.5000      -17370.0452  -17370.2939       0.2487   213.8
0.7500      -17369.8037  -17370.0456       0.2419   208.0
1.0000      -17369.5818  -17369.9929       0.4111   353.3
1.2500      -17369.5461  -17369.9312       0.3851   331.0
1.5000      -17369.6118  -17369.9661       0.3544   304.6
1.7500      -17369.8682  -17370.2051       0.3369   289.6
2.0000      -17369.8577  -17370.4319       0.5741   493.5
2.2500      -17370.4302  -17370.6191       0.1889   162.4
2.5000      -17370.2016  -17370.4915       0.2899   249.2
2.7500      -17370.0833  -17370.5950       0.5117   439.9
3.0000      -17370.2639  -17370.5714       0.3074   264.3
3.2500      -17370.3922  -17370.6395       0.2473   212.5
3.5000      -17370.2975  -17370.7008       0.4032   346.6
3.7500      -17370.0445  -17370.5700       0.5256   451.8
4.0000      -17370.2389  -17370.5199       0.2810   241.6
4.2500      -17370.3389  -17370.5193       0.1805   155.1
4.5000      -17369.9700  -17370.4189       0.4489   385.9
4.7500      -17370.2183  -17370.5764       0.3580   307.8
5.0000      -17370.4534  -17370.7435       0.2900   249.3
5.2500      -17370.1538  -17370.5297       0.3759   323.2
5.5000      -17370.3317  -17370.6844       0.3527   303.2
5.7500      -17370.0602  -17370.4607       0.4005   344.3
6.0000      -17370.3143  -17370.7459       0.4317   371.1
6.2500      -17370.4302  -17370.6318       0.2016   173.3
6.5000      -17370.3282  -17370.5237       0.1955   168.1
6.7500      -17370.2429  -17370.5801       0.3373   289.9
7.0000      -17370.3146  -17370.6479       0.3333   286.5
7.2500      -17370.2929  -17370.6280       0.3351   288.0
7.5000      -17370.3415  -17370.6219       0.2804   241.1
7.7500      -17370.3452  -17370.5427       0.1975   169.8
8.0000      -17370.3366  -17370.6051       0.2685   230.8
8.2500      -17370.2273  -17370.5794       0.3521   302.6
8.5000      -17369.8734  -17370.2824       0.4090   351.6
8.7500      -17370.3225  -17370.7303       0.4079   350.6
9.0000      -17370.2332  -17370.4940       0.2608   224.1
9.2500      -17370.1339  -17370.6145       0.4807   413.2
9.5000      -17370.0798  -17370.5235       0.4437   381.4
9.7500      -17370.3471  -17370.6750       0.3279   281.9
10.0000     -17370.0517  -17370.6146       0.5629   483.9
10.2500     -17370.0829  -17370.4207       0.3378   290.4
10.5000     -17370.1933  -17370.6213       0.4280   367.9
10.7500     -17370.1548  -17370.5015       0.3467   298.0
11.0000     -17370.3404  -17370.6430       0.3026   260.1
11.2500     -17370.1713  -17370.6312       0.4599   395.3
11.5000     -17370.0973  -17370.4393       0.3420   294.0
11.7500     -17370.3180  -17370.5413       0.2234   192.0
12.0000     -17370.3502  -17370.6553       0.3051   262.3
12.2500     -17370.2579  -17370.5141       0.2562   220.2
12.5000     -17370.2287  -17370.5331       0.3044   261.6
12.7500     -17370.1892  -17370.6481       0.4589   394.5
13.0000     -17370.2661  -17370.6226       0.3565   306.5
13.2500     -17369.9388  -17370.2736       0.3348   287.8
13.5000     -17370.1085  -17370.5508       0.4424   380.3
13.7500     -17370.2771  -17370.5822       0.3052   262.3
14.0000     -17370.2953  -17370.6541       0.3589   308.5
14.2500     -17370.2979  -17370.6113       0.3135   269.5
14.5000     -17370.3833  -17370.6107       0.2273   195.4
14.7500     -17370.3892  -17370.7118       0.3227   277.4
15.0000     -17370.2694  -17370.6604       0.3911   336.2
15.2500     -17370.0940  -17370.4600       0.3660   314.6
15.5000     -17370.2143  -17370.5547       0.3404   292.6
15.7500     -17370.2950  -17370.6911       0.3961   340.5
16.0000     -17370.3168  -17370.7183       0.4015   345.1
16.2500     -17370.2284  -17370.6530       0.4246   365.0
16.5000     -17370.2838  -17370.5979       0.3142   270.1
16.7500     -17370.0747  -17370.7110       0.6362   546.9
17.0000     -17370.1036  -17370.5213       0.4177   359.1
17.2500     -17370.0178  -17370.5758       0.5579   479.6
17.5000     -17370.0737  -17370.5268       0.4531   389.5
17.7500     -17370.1189  -17370.4569       0.3380   290.5
18.0000     -17370.3516  -17370.6111       0.2595   223.1
18.2500     -17369.9807  -17370.2445       0.2638   226.8
18.5000     -17369.9581  -17370.4000       0.4419   379.8
18.7500     -17370.2795  -17370.6330       0.3535   303.8
19.0000     -17370.2875  -17370.6623       0.3747   322.1
19.2500     -17370.1695  -17370.6058       0.4363   375.1
19.5000     -17370.1035  -17370.4374       0.3339   287.0
19.7500     -17370.1785  -17370.5819       0.4034   346.8
20.0000     -17370.4572  -17370.7653       0.3081   264.9
20.2500     -17370.1803  -17370.5020       0.3217   276.5
20.5000     -17369.9906  -17370.5139       0.5233   449.9
20.7500     -17370.2412  -17370.5838       0.3426   294.5
21.0000     -17370.2898  -17370.5057       0.2160   185.6
21.2500     -17370.0726  -17370.3472       0.2746   236.0
21.5000     -17369.9946  -17370.4416       0.4471   384.3
21.7500     -17370.4086  -17370.6396       0.2310   198.5
22.0000     -17370.4081  -17370.6496       0.2415   207.6
22.2500     -17370.1127  -17370.5135       0.4008   344.5
22.5000     -17370.4072  -17370.6247       0.2174   186.9
22.7500     -17370.0300  -17370.7046       0.6746   579.9
23.0000     -17370.0750  -17370.5195       0.4445   382.1
23.2500     -17370.2961  -17370.7574       0.4613   396.5
23.5000     -17370.2262  -17370.6290       0.4028   346.2
23.7500     -17370.2044  -17370.5582       0.3538   304.2
24.0000     -17370.1350  -17370.5917       0.4567   392.6
24.2500     -17370.2455  -17370.5952       0.3497   300.6
24.5000     -17370.1685  -17370.4757       0.3072   264.1
24.7500     -17370.0631  -17370.3767       0.3136   269.6
25.0000     -17370.1463  -17370.5512       0.4049   348.1
25.2500     -17370.1099  -17370.4322       0.3224   277.1
25.5000     -17369.9390  -17370.5634       0.6244   536.7
25.7500     -17370.2267  -17370.6243       0.3975   341.7
26.0000     -17370.1135  -17370.6810       0.5675   487.8
26.2500     -17370.2691  -17370.5306       0.2615   224.8
26.5000     -17369.9956  -17370.4626       0.4670   401.4
26.7500     -17369.9520  -17370.5222       0.5701   490.1
27.0000     -17370.2771  -17370.5734       0.2964   254.7
27.2500     -17370.3695  -17370.6314       0.2619   225.1
27.5000     -17370.0882  -17370.6083       0.5201   447.1
27.7500     -17370.1661  -17370.4947       0.3286   282.5
28.0000     -17370.2867  -17370.7263       0.4396   377.9
28.2500     -17370.2469  -17370.5257       0.2788   239.7
28.5000     -17370.2393  -17370.6083       0.3690   317.2
28.7500     -17370.2082  -17370.4568       0.2486   213.7
29.0000     -17370.1035  -17370.5528       0.4493   386.2
29.2500     -17370.0888  -17370.4374       0.3486   299.6
29.5000     -17370.2827  -17370.6001       0.3174   272.8
29.7500     -17370.1609  -17370.6496       0.4886   420.0
30.0000     -17369.9338  -17370.3841       0.4503   387.1
30.2500     -17370.2486  -17370.6359       0.3874   333.0
30.5000     -17370.2434  -17370.6182       0.3748   322.2
30.7500     -17370.3583  -17370.6509       0.2926   251.5
31.0000     -17370.0875  -17370.5649       0.4774   410.3
31.2500     -17370.2259  -17370.5429       0.3169   272.4
31.5000     -17370.2271  -17370.6657       0.4387   377.1
31.7500     -17370.4513  -17370.7219       0.2706   232.6
32.0000     -17370.3782  -17370.6405       0.2623   225.5
32.2500     -17370.3012  -17370.6204       0.3192   274.4
32.5000     -17370.2015  -17370.5653       0.3639   312.8
32.7500     -17370.2026  -17370.5972       0.3946   339.2
33.0000     -17370.3339  -17370.5917       0.2577   221.5
33.2500     -17370.1459  -17370.4887       0.3429   294.7
33.5000     -17370.3641  -17370.5174       0.1534   131.8
33.7500     -17370.1618  -17370.5981       0.4363   375.0
34.0000     -17370.1355  -17370.4502       0.3147   270.5
34.2500     -17370.1875  -17370.5061       0.3186   273.9
34.5000     -17370.2084  -17370.5001       0.2917   250.7
34.7500     -17370.1267  -17370.5256       0.3989   342.9
35.0000     -17370.2999  -17370.6781       0.3782   325.1
35.2500     -17370.4702  -17370.6703       0.2001   172.0
35.5000     -17370.3443  -17370.6225       0.2781   239.1
35.7500     -17370.1587  -17370.5165       0.3578   307.6
36.0000     -17370.1155  -17370.5760       0.4605   395.8
36.2500     -17370.0949  -17370.4342       0.3393   291.7
36.5000     -17370.2118  -17370.6143       0.4025   346.0
36.7500     -17370.1218  -17370.5299       0.4080   350.7
37.0000     -17370.2774  -17370.6683       0.3909   336.0
37.2500     -17370.0880  -17370.3993       0.3113   267.6
37.5000     -17370.1595  -17370.6423       0.4828   415.0
37.7500     -17370.3188  -17370.6278       0.3090   265.6
38.0000     -17370.3081  -17370.6655       0.3574   307.2
38.2500     -17370.2769  -17370.7136       0.4368   375.4
38.5000     -17370.1303  -17370.5901       0.4598   395.2
38.7500     -17370.2377  -17370.6169       0.3792   325.9
39.0000     -17370.3798  -17370.6512       0.2714   233.3
39.2500     -17370.3905  -17370.6647       0.2742   235.7
39.5000     -17370.2033  -17370.4959       0.2926   251.5
39.7500     -17370.2178  -17370.5526       0.3348   287.8
40.0000     -17370.3113  -17370.6022       0.2910   250.1
