Time[ps]      Etot[eV]     Epot[eV]     Ekin[eV]    T[K]
0.0000      -17370.1076  -17370.4124       0.3048   262.0
0.2500      -17370.0933  -17370.3134       0.2201   189.2
0.5000      -17370.1325  -17370.4173       0.2848   244.8
0.7500      -17369.7852  -17370.3179       0.5327   457.9
1.0000      -17369.9109  -17370.2365       0.3256   279.9
1.2500      -17369.6865  -17369.9830       0.2965   254.9
1.5000      -17369.7113  -17369.8963       0.1849   159.0
1.7500      -17369.9328  -17370.2345       0.3017   259.3
2.0000      -17370.1456  -17370.4546       0.3090   265.6
2.2500      -17370.2460  -17370.4720       0.2259   194.2
2.5000      -17370.2262  -17370.5580       0.3318   285.2
2.7500      -17370.2763  -17370.5790       0.3027   260.2
3.0000      -17370.0075  -17370.3833       0.3758   323.0
3.2500      -17370.1015  -17370.5532       0.4517   388.3
3.5000      -17370.2044  -17370.5535       0.3491   300.1
3.7500      -17370.1732  -17370.6083       0.4351   374.0
4.0000      -17370.2397  -17370.5842       0.3445   296.1
4.2500      -17370.1810  -17370.4369       0.2558   219.9
4.5000      -17370.2769  -17370.5903       0.3134   269.4
4.7500      -17370.2703  -17370.5150       0.2446   210.3
5.0000      -17370.2701  -17370.5747       0.3047   261.9
5.2500      -17370.2848  -17370.5140       0.2292   197.0
5.5000      -17370.1683  -17370.4798       0.3115   267.8
5.7500      -17370.2873  -17370.6026       0.3153   271.0
6.0000      -17369.9122  -17370.2623       0.3502   301.0
6.2500      -17370.2264  -17370.5094       0.2831   243.3
6.5000      -17370.2919  -17370.5426       0.2508   215.5
6.7500      -17370.1875  -17370.5719       0.3843   330.4
7.0000      -17370.1671  -17370.4857       0.3186   273.9
7.2500      -17370.2193  -17370.4970       0.2777   238.7
7.5000      -17370.2793  -17370.6124       0.3331   286.3
7.7500      -17370.3816  -17370.5705       0.1889   162.4
8.0000      -17370.3445  -17370.5837       0.2392   205.6
8.2500      -17370.0765  -17370.4937       0.4171   358.5
8.5000      -17370.2286  -17370.6123       0.3837   329.8
8.7500      -17370.2238  -17370.4833       0.2594   223.0
9.0000      -17369.9482  -17370.4330       0.4848   416.7
9.2500      -17370.2059  -17370.6052       0.3993   343.2
9.5000      -17370.1625  -17370.5684       0.4059   348.9
9.7500      -17370.1474  -17370.5613       0.4139   355.8
10.0000     -17370.2352  -17370.5641       0.3289   282.7
10.2500     -17370.0997  -17370.3704       0.2707   232.7
10.5000     -17370.1873  -17370.4836       0.2964   254.7
10.7500     -17370.1241  -17370.4434       0.3193   274.4
11.0000     -17370.1754  -17370.5617       0.3863   332.1
11.2500     -17370.1961  -17370.5257       0.3296   283.3
11.5000     -17370.3472  -17370.6681       0.3209   275.8
11.7500     -17370.3176  -17370.5854       0.2678   230.2
12.0000     -17370.3899  -17370.5947       0.2048   176.1
12.2500     -17370.2697  -17370.5404       0.2706   232.6
12.5000     -17370.2447  -17370.5150       0.2704   232.4
12.7500     -17370.2158  -17370.5264       0.3106   267.0
13.0000     -17370.0297  -17370.4347       0.4050   348.1
13.2500     -17370.2072  -17370.5416       0.3344   287.5
13.5000     -17370.1565  -17370.5277       0.3712   319.1
13.7500     -17370.2450  -17370.5423       0.2973   255.6
14.0000     -17370.2695  -17370.5390       0.2695   231.7
14.2500     -17369.9936  -17370.4965       0.5029   432.2
14.5000     -17370.1729  -17370.5622       0.3892   334.6
14.7500     -17370.3187  -17370.6014       0.2828   243.1
15.0000     -17370.1604  -17370.5059       0.3455   297.0
15.2500     -17369.9811  -17370.5459       0.5648   485.5
15.5000     -17370.0704  -17370.4377       0.3673   315.7
15.7500     -17370.2008  -17370.5551       0.3543   304.5
16.0000     -17369.8774  -17370.4100       0.5326   457.8
16.2500     -17370.0955  -17370.4615       0.3659   314.6
16.5000     -17370.2919  -17370.5983       0.3064   263.4
16.7500     -17370.3082  -17370.5557       0.2475   212.7
17.0000     -17370.2781  -17370.6035       0.3254   279.7
17.2500     -17370.1730  -17370.5466       0.3736   321.2
17.5000     -17370.0573  -17370.4794       0.4221   362.8
17.7500     -17370.0974  -17370.4322       0.3348   287.8
18.0000     -17370.1946  -17370.5957       0.4010   344.7
18.2500     -17370.2086  -17370.4203       0.2118   182.0
18.5000     -17370.2166  -17370.5791       0.3625   311.6
18.7500     -17369.7626  -17370.3179       0.5553   477.3
19.0000     -17370.1723  -17370.5443       0.3720   319.8
19.2500     -17370.0505  -17370.4581       0.4077   350.4
19.5000     -17370.0977  -17370.4659       0.3683   316.6
19.7500     -17370.0671  -17370.5594       0.4924   423.2
20.0000     -17370.1711  -17370.5110       0.3399   292.2
20.2500     -17370.2082  -17370.5506       0.3424   294.3
20.5000     -17370.1089  -17370.5055       0.3966   340.9
20.7500     -17370.3056  -17370.5668       0.2612   224.5
21.0000     -17370.1117  -17370.4301       0.3185   273.7
21.2500     -17370.2732  -17370.4788       0.2055   176.7
21.5000     -17370.2922  -17370.5674       0.2752   236.6
21.7500     -17370.1259  -17370.4698       0.3439   295.6
22.0000     -17369.9788  -17370.3397       0.3609   310.3
22.2500     -17369.8590  -17370.3891       0.5300   455.6
22.5000     -17370.1366  -17370.5357       0.3991   343.0
22.7500     -17370.1614  -17370.4436       0.2821   242.5
23.0000     -17369.9172  -17370.3532       0.4359   374.7
23.2500     -17370.2100  -17370.4819       0.2719   233.7
23.5000     -17369.9603  -17370.4397       0.4793   412.0
23.7500     -17370.1628  -17370.5878       0.4250   365.3
24.0000     -17370.1963  -17370.4647       0.2684   230.7
24.2500     -17370.0507  -17370.4565       0.4058   348.9
24.5000     -17370.2032  -17370.5584       0.3551   305.3
24.7500     -17370.2812  -17370.5446       0.2635   226.5
25.0000     -17370.1826  -17370.5041       0.3215   276.3
25.2500     -17370.2176  -17370.5254       0.3078   264.6
25.5000     -17370.1705  -17370.5323       0.3618   311.0
25.7500     -17370.1344  -17370.5614       0.4270   367.1
26.0000     -17370.2386  -17370.4804       0.2418   207.9
26.2500     -17369.9479  -17370.2733       0.3255   279.8
26.5000     -17370.0850  -17370.4210       0.3360   288.8
26.7500     -17370.1832  -17370.4799       0.2967   255.1
27.0000     -17370.1555  -17370.5194       0.3639   312.8
27.2500     -17370.0080  -17370.4643       0.4563   392.2
27.5000     -17370.2886  -17370.4318       0.1432   123.1
27.7500     -17370.2540  -17370.5437       0.2897   249.0
28.0000     -17370.1076  -17370.4134       0.3058   262.8
28.2500     -17370.2267  -17370.4469       0.2202   189.3
28.5000     -17370.0749  -17370.5549       0.4800   412.6
28.7500     -17370.1075  -17370.5675       0.4600   395.4
29.0000     -17369.9297  -17370.4579       0.5282   454.0
29.2500     -17370.2427  -17370.4764       0.2338   200.9
29.5000     -17369.8420  -17370.3666       0.5245   450.9
29.7500     -17370.0595  -17370.4502       0.3907   335.9
30.0000     -17370.2391  -17370.5100       0.2709   232.9
30.2500     -17370.1100  -17370.3622       0.2522   216.8
30.5000     -17370.1350  -17370.5979       0.4629   397.9
30.7500     -17369.9474  -17370.2710       0.3237   278.2
31.0000     -17369.9965  -17370.5809       0.5844   502.3
31.2500     -17369.9919  -17370.3872       0.3953   339.8
31.5000     -17370.4048  -17370.5952       0.1904   163.7
31.7500     -17369.9583  -17370.4533       0.4950   425.5
32.0000     -17370.4572  -17370.6431       0.1859   159.8
32.2500     -17370.1236  -17370.5273       0.4038   347.1
32.5000     -17369.9587  -17370.4551       0.4964   426.7
32.7500     -17369.9704  -17370.5215       0.5512   473.8
33.0000     -17370.0168  -17370.4484       0.4316   371.0
33.2500     -17370.0714  -17370.3456       0.2742   235.7
33.5000     -17370.2590  -17370.4929       0.2339   201.0
33.7500     -17370.3144  -17370.4967       0.1823   156.7
34.0000     -17370.2049  -17370.4766       0.2717   233.6
34.2500     -17370.1175  -17370.3994       0.2819   242.4
34.5000     -17370.1728  -17370.5390       0.3662   314.8
34.7500     -17370.1714  -17370.5009       0.3296   283.3
35.0000     -17370.1249  -17370.4618       0.3368   289.5
35.2500     -17370.2662  -17370.5301       0.2639   226.9
35.5000     -17369.9224  -17370.4245       0.5021   431.6
35.7500     -17370.2739  -17370.5542       0.2803   240.9
36.0000     -17370.1236  -17370.5311       0.4075   350.3
36.2500     -17370.2005  -17370.4262       0.2257   194.0
36.5000     -17370.1112  -17370.5951       0.4838   415.9
36.7500     -17370.2348  -17370.5506       0.3159   271.5
37.0000     -17370.2951  -17370.5239       0.2287   196.6
37.2500     -17370.1020  -17370.5431       0.4411   379.2
37.5000     -17370.2975  -17370.5556       0.2581   221.9
37.7500     -17370.1517  -17370.5311       0.3794   326.1
38.0000     -17369.9642  -17370.3741       0.4099   352.4
38.2500     -17370.1848  -17370.4647       0.2799   240.6
38.5000     -17370.3505  -17370.4874       0.1369   117.7
38.7500     -17369.9757  -17370.3344       0.3587   308.4
39.0000     -17370.1589  -17370.4885       0.3296   283.3
39.2500     -17370.2342  -17370.5478       0.3136   269.6
39.5000     -17370.3032  -17370.5738       0.2706   232.6
39.7500     -17369.9033  -17370.2763       0.3730   320.6
40.0000     -17370.2732  -17370.6192       0.3460   297.4
