Time[ps]      Etot[eV]     Epot[eV]     Ekin[eV]    T[K]
0.0000      -17369.9664  -17370.4124       0.4460   383.3
0.2500      -17370.0151  -17370.1632       0.1481   127.3
0.5000      -17369.8298  -17370.3033       0.4735   407.0
0.7500      -17369.5668  -17369.9999       0.4332   372.3
1.0000      -17369.6845  -17370.0801       0.3956   340.1
1.2500      -17369.7484  -17369.9523       0.2039   175.3
1.5000      -17369.4437  -17369.9544       0.5107   439.0
1.7500      -17369.6849  -17370.0777       0.3929   337.7
2.0000      -17369.9582  -17370.2227       0.2646   227.4
2.2500      -17369.9784  -17370.3089       0.3305   284.1
2.5000      -17369.8196  -17370.2281       0.4085   351.1
2.7500      -17369.9652  -17370.2993       0.3341   287.2
3.0000      -17369.9741  -17370.3429       0.3688   317.0
3.2500      -17369.9360  -17370.2985       0.3625   311.6
3.5000      -17370.0755  -17370.4053       0.3298   283.5
3.7500      -17369.7541  -17370.2255       0.4714   405.2
4.0000      -17369.9545  -17370.3113       0.3567   306.7
4.2500      -17370.1605  -17370.4555       0.2950   253.6
4.5000      -17370.0112  -17370.4146       0.4034   346.8
4.7500      -17369.6984  -17370.1658       0.4674   401.8
5.0000      -17369.7209  -17370.2571       0.5362   460.9
5.2500      -17369.9164  -17370.4384       0.5219   448.6
5.5000      -17370.1345  -17370.4240       0.2895   248.8
5.7500      -17369.9831  -17370.2845       0.3014   259.1
6.0000      -17369.9754  -17370.4248       0.4495   386.3
6.2500      -17369.9595  -17370.3660       0.4064   349.4
6.5000      -17369.7359  -17370.0777       0.3418   293.8
6.7500      -17370.0216  -17370.4278       0.4063   349.2
7.0000      -17369.9846  -17370.3714       0.3868   332.5
7.2500      -17370.0642  -17370.3308       0.2665   229.1
7.5000      -17370.0791  -17370.4455       0.3664   314.9
7.7500      -17370.0547  -17370.4450       0.3904   335.6
8.0000      -17369.9316  -17370.3591       0.4276   367.5
8.2500      -17369.9257  -17370.2806       0.3549   305.1
8.5000      -17370.0236  -17370.3145       0.2909   250.1
8.7500      -17370.2622  -17370.4557       0.1935   166.3
9.0000      -17370.1766  -17370.4778       0.3013   259.0
9.2500      -17370.1467  -17370.3914       0.2447   210.4
9.5000      -17370.1015  -17370.4189       0.3174   272.8
9.7500      -17369.9396  -17370.4297       0.4901   421.3
10.0000     -17370.0731  -17370.3717       0.2986   256.7
10.2500     -17370.0190  -17370.3684       0.3494   300.3
10.5000     -17370.2062  -17370.4612       0.2550   219.2
10.7500     -17369.8894  -17370.3719       0.4825   414.7
11.0000     -17369.9607  -17370.2656       0.3050   262.2
11.2500     -17370.0680  -17370.3593       0.2913   250.4
11.5000     -17369.9513  -17370.4074       0.4560   392.0
11.7500     -17370.0217  -17370.3684       0.3467   298.0
12.0000     -17370.2791  -17370.5059       0.2268   195.0
12.2500     -17370.0494  -17370.3398       0.2904   249.6
12.5000     -17370.0826  -17370.4413       0.3587   308.3
12.7500     -17370.2835  -17370.4465       0.1631   140.2
13.0000     -17370.0335  -17370.3733       0.3398   292.1
13.2500     -17369.8385  -17370.1818       0.3433   295.1
13.5000     -17369.9463  -17370.2976       0.3513   302.0
13.7500     -17369.9086  -17370.3759       0.4673   401.7
14.0000     -17370.1184  -17370.3678       0.2494   214.3
14.2500     -17370.0631  -17370.4247       0.3615   310.8
14.5000     -17370.1977  -17370.4467       0.2491   214.1
14.7500     -17369.9842  -17370.3898       0.4056   348.7
15.0000     -17369.9248  -17370.4450       0.5201   447.1
15.2500     -17370.0235  -17370.3118       0.2884   247.9
15.5000     -17370.1264  -17370.4413       0.3149   270.7
15.7500     -17370.0842  -17370.3803       0.2962   254.6
16.0000     -17370.0562  -17370.3013       0.2451   210.7
16.2500     -17369.9369  -17370.3417       0.4049   348.0
16.5000     -17369.9064  -17370.3634       0.4570   392.8
16.7500     -17369.8954  -17370.3080       0.4126   354.7
17.0000     -17369.9054  -17370.3210       0.4156   357.3
17.2500     -17370.2833  -17370.4379       0.1546   132.9
17.5000     -17369.9430  -17370.4021       0.4591   394.7
17.7500     -17370.1368  -17370.4255       0.2888   248.2
18.0000     -17370.1212  -17370.4193       0.2981   256.3
18.2500     -17369.8424  -17370.2493       0.4069   349.7
18.5000     -17370.1143  -17370.3682       0.2539   218.2
18.7500     -17370.3071  -17370.4746       0.1675   144.0
19.0000     -17369.9823  -17370.4073       0.4249   365.3
19.2500     -17369.9144  -17370.4075       0.4931   423.9
19.5000     -17370.0523  -17370.3726       0.3203   275.3
19.7500     -17370.1555  -17370.4025       0.2470   212.3
20.0000     -17370.1146  -17370.3294       0.2149   184.7
20.2500     -17369.9994  -17370.3540       0.3546   304.8
20.5000     -17369.8233  -17370.3452       0.5220   448.7
20.7500     -17369.9903  -17370.2317       0.2415   207.6
21.0000     -17369.7232  -17370.1694       0.4462   383.5
21.2500     -17369.8858  -17370.2427       0.3569   306.7
21.5000     -17369.9509  -17370.3098       0.3589   308.5
21.7500     -17369.9442  -17370.3854       0.4412   379.3
22.0000     -17369.8434  -17370.3985       0.5551   477.1
22.2500     -17370.0035  -17370.3374       0.3339   287.0
22.5000     -17369.8847  -17370.3623       0.4777   410.6
22.7500     -17370.2232  -17370.4490       0.2258   194.1
23.0000     -17370.1666  -17370.3731       0.2065   177.5
23.2500     -17370.1318  -17370.4049       0.2731   234.8
23.5000     -17369.7724  -17370.1546       0.3822   328.5
23.7500     -17370.1114  -17370.3926       0.2811   241.7
24.0000     -17369.7544  -17370.1863       0.4319   371.2
24.2500     -17370.0580  -17370.3535       0.2955   254.0
24.5000     -17369.9222  -17370.3963       0.4741   407.5
24.7500     -17369.9429  -17370.3582       0.4154   357.1
25.0000     -17370.1659  -17370.4072       0.2413   207.4
25.2500     -17369.9302  -17370.2900       0.3597   309.2
25.5000     -17370.0822  -17370.2922       0.2100   180.5
25.7500     -17369.7542  -17370.1004       0.3462   297.6
26.0000     -17370.0264  -17370.2646       0.2382   204.7
26.2500     -17370.0358  -17370.3440       0.3082   264.9
26.5000     -17370.1728  -17370.3860       0.2132   183.2
26.7500     -17369.9344  -17370.2601       0.3257   280.0
27.0000     -17369.8380  -17370.2469       0.4089   351.5
27.2500     -17369.7602  -17370.1948       0.4347   373.6
27.5000     -17370.0358  -17370.3655       0.3297   283.4
27.7500     -17370.0422  -17370.3227       0.2806   241.2
28.0000     -17370.1390  -17370.3489       0.2099   180.4
28.2500     -17370.0027  -17370.2604       0.2577   221.6
28.5000     -17369.9731  -17370.2159       0.2428   208.7
28.7500     -17370.1288  -17370.4207       0.2918   250.9
29.0000     -17369.5731  -17370.1808       0.6077   522.4
29.2500     -17370.0155  -17370.3844       0.3689   317.1
29.5000     -17370.0041  -17370.3832       0.3791   325.9
29.7500     -17369.9842  -17370.3017       0.3174   272.9
30.0000     -17370.0982  -17370.3940       0.2958   254.2
30.2500     -17369.9639  -17370.3015       0.3376   290.2
30.5000     -17370.0759  -17370.3487       0.2729   234.6
30.7500     -17369.7921  -17370.3009       0.5088   437.3
31.0000     -17370.1294  -17370.4619       0.3325   285.8
31.2500     -17369.9906  -17370.2281       0.2375   204.2
31.5000     -17369.9707  -17370.2071       0.2364   203.2
31.7500     -17370.0540  -17370.3339       0.2800   240.7
32.0000     -17370.0240  -17370.4245       0.4005   344.3
32.2500     -17370.0144  -17370.4241       0.4097   352.2
32.5000     -17369.9081  -17370.3438       0.4357   374.6
32.7500     -17370.0442  -17370.3495       0.3053   262.4
33.0000     -17369.8292  -17370.3461       0.5169   444.3
33.2500     -17369.7032  -17370.2185       0.5153   443.0
33.5000     -17369.9847  -17370.3374       0.3526   303.1
33.7500     -17370.0362  -17370.3994       0.3632   312.2
34.0000     -17369.9071  -17370.3478       0.4407   378.9
34.2500     -17369.9768  -17370.2839       0.3070   263.9
34.5000     -17370.2050  -17370.4293       0.2243   192.8
34.7500     -17370.0430  -17370.3365       0.2934   252.2
35.0000     -17370.0508  -17370.3093       0.2585   222.2
35.2500     -17370.0754  -17370.3564       0.2810   241.6
35.5000     -17369.8093  -17370.1560       0.3468   298.1
35.7500     -17369.7381  -17370.1916       0.4535   389.9
36.0000     -17370.0447  -17370.3286       0.2839   244.0
36.2500     -17370.1154  -17370.4012       0.2859   245.7
36.5000     -17370.0526  -17370.3855       0.3329   286.1
36.7500     -17370.0803  -17370.3726       0.2923   251.3
37.0000     -17369.9370  -17370.3381       0.4010   344.7
37.2500     -17369.8141  -17370.3280       0.5139   441.7
37.5000     -17370.1275  -17370.3063       0.1789   153.7
37.7500     -17369.9156  -17370.2821       0.3666   315.1
38.0000     -17370.0905  -17370.3225       0.2320   199.4
38.2500     -17369.9950  -17370.3386       0.3436   295.4
38.5000     -17370.0385  -17370.4647       0.4262   366.3
38.7500     -17370.1465  -17370.4025       0.2560   220.0
39.0000     -17369.9411  -17370.2577       0.3166   272.1
39.2500     -17369.9543  -17370.2554       0.3011   258.8
39.5000     -17370.1249  -17370.4679       0.3430   294.8
39.7500     -17369.9270  -17370.2235       0.2965   254.9
40.0000     -17370.0152  -17370.3184       0.3033   260.7
