Time[ps]      Etot[eV]     Epot[eV]     Ekin[eV]    T[K]
0.0000      -17369.9953  -17370.4124       0.4171   358.5
0.2500      -17369.8570  -17370.1701       0.3130   269.1
0.5000      -17369.9942  -17370.2703       0.2761   237.3
0.7500      -17369.9875  -17370.2828       0.2953   253.9
1.0000      -17370.0251  -17370.2980       0.2729   234.6
1.2500      -17369.9491  -17370.3342       0.3851   331.0
1.5000      -17369.9383  -17370.3036       0.3653   314.0
1.7500      -17369.6048  -17370.2377       0.6329   544.1
2.0000      -17369.8913  -17370.2174       0.3261   280.3
2.2500      -17370.0021  -17370.2668       0.2646   227.5
2.5000      -17369.8728  -17370.2620       0.3892   334.6
2.7500      -17369.8731  -17370.2108       0.3377   290.3
3.0000      -17369.8861  -17370.2621       0.3761   323.3
3.2500      -17369.6729  -17370.1622       0.4893   420.6
3.5000      -17369.8283  -17370.1366       0.3083   265.0
3.7500      -17369.8911  -17370.2715       0.3803   326.9
4.0000      -17369.9914  -17370.2651       0.2737   235.3
4.2500      -17369.9042  -17370.2705       0.3663   314.8
4.5000      -17369.8636  -17370.2181       0.3545   304.8
4.7500      -17369.7485  -17370.0489       0.3004   258.2
5.0000      -17369.6338  -17370.0534       0.4196   360.7
5.2500      -17369.8337  -17370.1560       0.3223   277.0
5.5000      -17369.7467  -17370.0680       0.3213   276.2
5.7500      -17369.7882  -17370.2001       0.4120   354.1
6.0000      -17369.5379  -17370.1820       0.6440   553.6
6.2500      -17369.8189  -17370.1119       0.2930   251.9
6.5000      -17369.6258  -17370.0610       0.4351   374.0
6.7500      -17369.9168  -17370.2787       0.3619   311.1
7.0000      -17369.9878  -17370.2496       0.2618   225.1
7.2500      -17369.7547  -17370.1857       0.4310   370.5
7.5000      -17369.8453  -17370.1029       0.2576   221.4
7.7500      -17369.7829  -17370.0370       0.2541   218.5
8.0000      -17369.7772  -17370.1221       0.3449   296.5
8.2500      -17369.8307  -17370.1900       0.3594   308.9
8.5000      -17369.6448  -17370.1513       0.5066   435.4
8.7500      -17369.5870  -17370.0776       0.4907   421.8
9.0000      -17369.4406  -17370.1427       0.7021   603.5
9.2500      -17369.5700  -17369.9935       0.4235   364.1
9.5000      -17369.7173  -17369.9676       0.2503   215.2
9.7500      -17369.7375  -17370.0497       0.3122   268.3
10.0000     -17370.0212  -17370.2638       0.2426   208.5
10.2500     -17369.6265  -17370.1463       0.5198   446.8
10.5000     -17369.7474  -17370.0033       0.2559   220.0
10.7500     -17369.8867  -17370.0780       0.1913   164.5
11.0000     -17369.7118  -17370.1363       0.4245   364.9
11.2500     -17369.7735  -17370.1197       0.3462   297.6
11.5000     -17369.9941  -17370.1760       0.1819   156.3
11.7500     -17369.8327  -17370.1677       0.3350   287.9
12.0000     -17369.9161  -17370.2325       0.3164   272.0
12.2500     -17369.7452  -17370.1290       0.3838   329.9
12.5000     -17369.8485  -17370.1738       0.3253   279.6
12.7500     -17369.8208  -17370.2167       0.3960   340.4
13.0000     -17369.6574  -17370.0705       0.4130   355.0
13.2500     -17369.5945  -17370.0407       0.4462   383.6
13.5000     -17369.6930  -17370.1391       0.4461   383.5
13.7500     -17369.7398  -17370.1167       0.3769   324.0
14.0000     -17369.9763  -17370.2814       0.3051   262.2
14.2500     -17370.0405  -17370.2703       0.2298   197.5
14.5000     -17369.5469  -17369.9723       0.4254   365.7
14.7500     -17369.6560  -17370.1571       0.5011   430.7
15.0000     -17369.5253  -17370.0896       0.5643   485.1
15.2500     -17369.6877  -17369.9841       0.2964   254.8
15.5000     -17369.8143  -17370.1190       0.3047   261.9
15.7500     -17369.7748  -17370.0185       0.2437   209.5
16.0000     -17369.8197  -17370.1472       0.3275   281.5
16.2500     -17369.7175  -17370.1560       0.4385   376.9
16.5000     -17370.0726  -17370.2772       0.2046   175.9
16.7500     -17369.9345  -17370.1693       0.2348   201.8
17.0000     -17369.9940  -17370.2123       0.2183   187.6
17.2500     -17369.7856  -17370.2187       0.4330   372.2
17.5000     -17370.0000  -17370.1917       0.1917   164.8
17.7500     -17369.7621  -17370.1286       0.3665   315.1
18.0000     -17369.9247  -17370.1752       0.2505   215.4
18.2500     -17369.5290  -17370.1412       0.6123   526.3
18.5000     -17369.9460  -17370.2573       0.3114   267.6
18.7500     -17370.0568  -17370.3025       0.2456   211.1
19.0000     -17369.8296  -17370.1306       0.3010   258.7
19.2500     -17369.6913  -17370.1546       0.4633   398.2
19.5000     -17369.8325  -17370.1055       0.2730   234.7
19.7500     -17369.9243  -17370.1771       0.2528   217.3
20.0000     -17369.7657  -17370.1920       0.4264   366.5
20.2500     -17369.8473  -17370.1973       0.3500   300.9
20.5000     -17369.9854  -17370.2884       0.3029   260.4
20.7500     -17369.7467  -17370.1072       0.3605   309.9
21.0000     -17369.8450  -17370.2182       0.3732   320.8
21.2500     -17369.9053  -17370.2560       0.3507   301.5
21.5000     -17369.8202  -17370.2625       0.4423   380.2
21.7500     -17369.8984  -17370.2315       0.3331   286.3
22.0000     -17369.7643  -17370.1265       0.3622   311.3
22.2500     -17369.8557  -17370.2289       0.3732   320.8
22.5000     -17369.9118  -17370.3000       0.3882   333.7
22.7500     -17369.7923  -17370.1466       0.3544   304.6
23.0000     -17369.9139  -17370.2100       0.2961   254.5
23.2500     -17369.9748  -17370.1866       0.2119   182.1
23.5000     -17369.9500  -17370.2530       0.3030   260.5
23.7500     -17369.9643  -17370.2570       0.2928   251.7
24.0000     -17369.8388  -17370.2062       0.3675   315.9
24.2500     -17369.7671  -17370.2466       0.4795   412.2
24.5000     -17369.7826  -17370.2330       0.4504   387.2
24.7500     -17369.9341  -17370.1777       0.2436   209.4
25.0000     -17369.9261  -17370.1999       0.2737   235.3
25.2500     -17369.8508  -17370.1921       0.3413   293.4
25.5000     -17369.8093  -17370.1356       0.3263   280.5
25.7500     -17369.5669  -17370.0878       0.5209   447.7
26.0000     -17369.8463  -17370.1785       0.3322   285.5
26.2500     -17369.9751  -17370.2837       0.3086   265.3
26.5000     -17370.1023  -17370.3264       0.2241   192.6
26.7500     -17370.0600  -17370.2124       0.1523   131.0
27.0000     -17369.9491  -17370.1874       0.2382   204.8
27.2500     -17369.7121  -17370.1557       0.4437   381.4
27.5000     -17369.5364  -17370.1400       0.6037   518.9
27.7500     -17369.8582  -17370.1881       0.3300   283.6
28.0000     -17369.9079  -17370.2232       0.3153   271.0
28.2500     -17369.8083  -17370.1489       0.3405   292.7
28.5000     -17369.7791  -17370.1701       0.3909   336.0
28.7500     -17370.0347  -17370.2464       0.2117   182.0
29.0000     -17369.9965  -17370.1743       0.1777   152.8
29.2500     -17369.9230  -17370.1692       0.2461   211.6
29.5000     -17369.8972  -17370.1952       0.2980   256.2
29.7500     -17369.8594  -17370.1844       0.3250   279.3
30.0000     -17369.8455  -17370.0561       0.2106   181.0
30.2500     -17369.8672  -17370.1585       0.2913   250.4
30.5000     -17369.7177  -17370.1065       0.3889   334.3
30.7500     -17369.6867  -17370.1350       0.4483   385.3
31.0000     -17369.8390  -17370.2254       0.3864   332.1
31.2500     -17369.8461  -17370.0820       0.2359   202.8
31.5000     -17369.7280  -17370.1886       0.4606   395.9
31.7500     -17369.8450  -17370.0714       0.2264   194.6
32.0000     -17369.6796  -17370.1464       0.4667   401.2
32.2500     -17369.9058  -17370.1362       0.2304   198.0
32.5000     -17369.7950  -17370.2109       0.4159   357.5
32.7500     -17369.8232  -17370.2364       0.4131   355.1
33.0000     -17369.9710  -17370.1823       0.2113   181.7
33.2500     -17369.8233  -17370.0868       0.2635   226.5
33.5000     -17369.7198  -17370.0985       0.3787   325.5
33.7500     -17369.6698  -17370.2121       0.5423   466.1
34.0000     -17369.7654  -17370.0828       0.3175   272.9
34.2500     -17369.9756  -17370.2140       0.2383   204.9
34.5000     -17369.6590  -17370.0824       0.4234   363.9
34.7500     -17369.8433  -17370.1073       0.2640   227.0
35.0000     -17369.9489  -17370.2000       0.2512   215.9
35.2500     -17369.9402  -17370.2921       0.3520   302.6
35.5000     -17369.7902  -17370.1601       0.3700   318.0
35.7500     -17369.7572  -17370.2115       0.4543   390.5
36.0000     -17369.9215  -17370.1993       0.2778   238.8
36.2500     -17369.7904  -17370.2210       0.4306   370.2
36.5000     -17369.8332  -17370.1383       0.3051   262.3
36.7500     -17369.9230  -17370.2078       0.2847   244.8
37.0000     -17369.8049  -17370.2984       0.4935   424.2
37.2500     -17369.8847  -17370.1984       0.3137   269.6
37.5000     -17369.7580  -17370.2014       0.4434   381.1
37.7500     -17369.5200  -17370.0298       0.5098   438.2
38.0000     -17369.7979  -17370.1971       0.3992   343.1
38.2500     -17369.7880  -17370.2495       0.4614   396.7
38.5000     -17369.7295  -17370.1319       0.4024   345.9
38.7500     -17369.7937  -17370.2054       0.4117   353.9
39.0000     -17369.8351  -17370.2073       0.3722   319.9
39.2500     -17369.7521  -17370.1086       0.3565   306.4
39.5000     -17369.9389  -17370.2305       0.2915   250.6
39.7500     -17369.8927  -17370.1667       0.2740   235.5
40.0000     -17369.8196  -17370.0894       0.2698   231.9
