Time[ps]      Etot[eV]     Epot[eV]     Ekin[eV]    T[K]
0.0000      -17369.9917  -17370.4124       0.4207   361.6
0.2500      -17369.9630  -17370.2867       0.3237   278.3
0.5000      -17370.0122  -17370.2730       0.2608   224.1
0.7500      -17369.9525  -17370.3129       0.3604   309.8
1.0000      -17369.7926  -17370.2564       0.4638   398.7
1.2500      -17369.8229  -17370.1637       0.3408   293.0
1.5000      -17369.6981  -17370.0322       0.3341   287.2
1.7500      -17369.6609  -17370.0548       0.3938   338.5
2.0000      -17369.8421  -17370.2719       0.4297   369.4
2.2500      -17370.3870  -17370.8346       0.4476   384.8
2.5000      -17370.5581  -17370.8702       0.3121   268.3
2.7500      -17370.4999  -17370.8546       0.3548   304.9
3.0000      -17370.9105  -17371.1277       0.2172   186.7
3.2500      -17370.5676  -17371.0952       0.5275   453.5
3.5000      -17370.6355  -17370.9734       0.3379   290.4
3.7500      -17370.8979  -17371.0892       0.1913   164.4
4.0000      -17370.5949  -17370.9739       0.3790   325.8
4.2500      -17370.6346  -17370.9635       0.3289   282.7
4.5000      -17371.0098  -17371.1784       0.1687   145.0
4.7500      -17370.7376  -17371.1572       0.4195   360.6
5.0000      -17370.7174  -17370.9926       0.2752   236.5
5.2500      -17371.0228  -17371.1941       0.1712   147.2
5.5000      -17370.7445  -17371.0839       0.3395   291.8
5.7500      -17370.6296  -17371.0799       0.4503   387.1
6.0000      -17370.8476  -17371.0614       0.2138   183.8
6.2500      -17370.8415  -17371.1360       0.2944   253.1
6.5000      -17370.8373  -17371.0923       0.2550   219.2
6.7500      -17370.5814  -17370.9818       0.4005   344.2
7.0000      -17370.8074  -17371.1460       0.3387   291.1
7.2500      -17370.9666  -17371.1894       0.2228   191.5
7.5000      -17370.8392  -17371.1643       0.3251   279.4
7.7500      -17370.8242  -17371.1351       0.3109   267.2
8.0000      -17370.8629  -17371.1459       0.2830   243.3
8.2500      -17370.8573  -17371.1002       0.2429   208.8
8.5000      -17370.7762  -17371.0793       0.3031   260.5
8.7500      -17370.8223  -17371.0410       0.2186   187.9
9.0000      -17370.6576  -17371.0332       0.3756   322.9
9.2500      -17370.3801  -17370.8864       0.5063   435.2
9.5000      -17370.8499  -17371.2025       0.3527   303.2
9.7500      -17370.7167  -17371.0849       0.3681   316.5
10.0000     -17370.8384  -17371.1044       0.2660   228.6
10.2500     -17370.9378  -17371.1900       0.2523   216.9
10.5000     -17370.8059  -17371.0866       0.2807   241.3
10.7500     -17370.7848  -17371.0836       0.2987   256.8
11.0000     -17370.9591  -17371.2464       0.2873   247.0
11.2500     -17370.5865  -17371.0396       0.4531   389.5
11.5000     -17370.7951  -17371.1886       0.3935   338.2
11.7500     -17370.8897  -17371.2045       0.3147   270.6
12.0000     -17370.8239  -17371.1966       0.3727   320.4
12.2500     -17370.8019  -17371.2795       0.4776   410.5
12.5000     -17370.6474  -17371.1154       0.4680   402.3
12.7500     -17370.8243  -17371.1070       0.2827   243.0
13.0000     -17370.7640  -17371.0656       0.3016   259.3
13.2500     -17370.8893  -17371.1797       0.2904   249.6
13.5000     -17370.7671  -17371.0868       0.3196   274.8
13.7500     -17370.8125  -17371.1072       0.2947   253.4
14.0000     -17370.8709  -17371.0984       0.2276   195.6
14.2500     -17370.7993  -17371.1857       0.3864   332.2
14.5000     -17370.8456  -17371.1873       0.3417   293.7
14.7500     -17370.9758  -17371.2409       0.2651   227.9
15.0000     -17370.6203  -17370.9705       0.3503   301.1
15.2500     -17370.8288  -17371.1022       0.2734   235.0
15.5000     -17370.7950  -17371.2221       0.4271   367.1
15.7500     -17370.9390  -17371.1222       0.1832   157.5
16.0000     -17370.7977  -17371.1223       0.3245   279.0
16.2500     -17370.7618  -17371.1896       0.4278   367.7
16.5000     -17370.7647  -17371.1103       0.3456   297.1
16.7500     -17370.8975  -17371.1065       0.2090   179.6
17.0000     -17370.7710  -17371.2531       0.4821   414.4
17.2500     -17370.6410  -17371.1025       0.4615   396.7
17.5000     -17370.8868  -17371.1953       0.3086   265.3
17.7500     -17370.7064  -17371.1601       0.4537   390.0
18.0000     -17370.8198  -17371.2055       0.3857   331.6
18.2500     -17370.7991  -17371.2140       0.4149   356.6
18.5000     -17370.9814  -17371.2995       0.3181   273.4
18.7500     -17370.8170  -17371.0931       0.2761   237.3
19.0000     -17370.8085  -17371.0443       0.2359   202.7
19.2500     -17370.7758  -17371.0671       0.2913   250.4
19.5000     -17370.5027  -17371.0581       0.5554   477.4
19.7500     -17370.7596  -17371.1294       0.3698   317.9
20.0000     -17370.8593  -17371.1935       0.3342   287.3
20.2500     -17370.9271  -17371.1933       0.2662   228.8
20.5000     -17370.9053  -17371.2609       0.3556   305.6
20.7500     -17370.9483  -17371.1869       0.2387   205.2
21.0000     -17370.8381  -17371.0909       0.2528   217.3
21.2500     -17370.9433  -17371.2258       0.2825   242.9
21.5000     -17370.8742  -17371.2243       0.3501   300.9
21.7500     -17370.8733  -17371.2067       0.3334   286.6
22.0000     -17370.7330  -17371.1821       0.4491   386.0
22.2500     -17370.9222  -17371.2545       0.3323   285.6
22.5000     -17370.7378  -17370.9755       0.2377   204.4
22.7500     -17370.7086  -17370.9991       0.2905   249.7
23.0000     -17370.8706  -17371.1212       0.2506   215.4
23.2500     -17370.9030  -17371.2116       0.3087   265.3
23.5000     -17370.8692  -17371.0850       0.2158   185.5
23.7500     -17370.8334  -17371.2090       0.3756   322.9
24.0000     -17370.6166  -17371.0751       0.4585   394.1
24.2500     -17370.9562  -17371.2026       0.2463   211.8
24.5000     -17370.7053  -17371.1871       0.4819   414.2
24.7500     -17370.9535  -17371.2166       0.2630   226.1
25.0000     -17370.8996  -17371.1426       0.2431   209.0
25.2500     -17370.8984  -17371.2138       0.3154   271.1
25.5000     -17370.8812  -17371.1361       0.2549   219.1
25.7500     -17370.5842  -17370.9360       0.3518   302.4
26.0000     -17370.9640  -17371.1941       0.2301   197.8
26.2500     -17370.6522  -17371.1117       0.4594   394.9
26.5000     -17370.7266  -17371.1605       0.4339   373.0
26.7500     -17370.8632  -17371.0979       0.2347   201.7
27.0000     -17370.6172  -17371.1297       0.5125   440.5
27.2500     -17370.7609  -17371.0016       0.2408   207.0
27.5000     -17370.6755  -17371.0541       0.3786   325.4
27.7500     -17370.7095  -17371.1095       0.4000   343.9
28.0000     -17370.9703  -17371.2179       0.2476   212.8
28.2500     -17370.8903  -17371.0948       0.2045   175.8
28.5000     -17370.8376  -17371.0926       0.2550   219.2
28.7500     -17370.8244  -17371.1441       0.3197   274.8
29.0000     -17370.8691  -17371.1495       0.2804   241.0
29.2500     -17370.6748  -17371.2068       0.5320   457.3
29.5000     -17370.9008  -17371.2057       0.3048   262.0
29.7500     -17370.8476  -17371.1771       0.3295   283.2
30.0000     -17370.7629  -17371.0797       0.3168   272.3
30.2500     -17370.7581  -17370.9813       0.2232   191.9
30.5000     -17370.8586  -17371.1459       0.2873   247.0
30.7500     -17370.9878  -17371.1887       0.2010   172.8
31.0000     -17370.9255  -17371.2546       0.3292   282.9
31.2500     -17370.7562  -17371.0697       0.3135   269.5
31.5000     -17370.3376  -17370.9116       0.5740   493.4
31.7500     -17370.6433  -17371.1588       0.5155   443.1
32.0000     -17370.6021  -17371.0029       0.4008   344.5
32.2500     -17370.4974  -17371.0652       0.5678   488.1
32.5000     -17370.5265  -17371.0535       0.5270   453.0
32.7500     -17370.7989  -17371.0307       0.2318   199.2
33.0000     -17370.7025  -17371.0775       0.3750   322.4
33.2500     -17370.7098  -17371.1526       0.4428   380.7
33.5000     -17370.7985  -17371.1580       0.3595   309.0
33.7500     -17370.8432  -17371.1465       0.3032   260.7
34.0000     -17370.8537  -17371.1452       0.2916   250.6
34.2500     -17370.8521  -17371.2530       0.4009   344.6
34.5000     -17370.8179  -17371.1009       0.2829   243.2
34.7500     -17370.7825  -17371.0570       0.2745   235.9
35.0000     -17370.8162  -17371.0705       0.2543   218.6
35.2500     -17370.8633  -17371.2543       0.3910   336.1
35.5000     -17370.8159  -17371.0532       0.2372   203.9
35.7500     -17370.8413  -17371.1434       0.3020   259.6
36.0000     -17370.7175  -17371.0502       0.3327   286.0
36.2500     -17370.6003  -17370.9887       0.3884   333.8
36.5000     -17370.6167  -17370.8945       0.2778   238.8
36.7500     -17370.6079  -17370.9502       0.3423   294.3
37.0000     -17370.7812  -17371.1200       0.3388   291.2
37.2500     -17370.6033  -17370.9859       0.3826   328.9
37.5000     -17370.7726  -17371.1250       0.3524   302.9
37.7500     -17370.7740  -17371.0976       0.3236   278.2
38.0000     -17370.7340  -17371.1600       0.4260   366.2
38.2500     -17370.6313  -17371.1622       0.5309   456.4
38.5000     -17370.5770  -17371.1228       0.5458   469.2
38.7500     -17370.6284  -17371.0306       0.4022   345.7
39.0000     -17370.9585  -17371.1670       0.2085   179.2
39.2500     -17370.6762  -17371.0858       0.4096   352.1
39.5000     -17370.5176  -17371.1195       0.6019   517.4
39.7500     -17370.8436  -17371.0637       0.2201   189.2
40.0000     -17370.7650  -17371.1669       0.4019   345.5
