Time[ps]      Etot[eV]     Epot[eV]     Ekin[eV]    T[K]
0.0000      -17369.9829  -17370.4124       0.4295   369.2
0.2500      -17369.8140  -17370.1475       0.3334   286.6
0.5000      -17369.9560  -17370.1973       0.2413   207.4
0.7500      -17369.8422  -17370.3212       0.4791   411.8
1.0000      -17369.6698  -17370.2055       0.5358   460.5
1.2500      -17369.6885  -17370.2155       0.5269   453.0
1.5000      -17369.8605  -17370.1037       0.2432   209.0
1.7500      -17369.7352  -17370.1197       0.3846   330.6
2.0000      -17369.6468  -17370.0477       0.4008   344.5
2.2500      -17369.9444  -17370.1796       0.2352   202.2
2.5000      -17369.8516  -17370.2246       0.3730   320.6
2.7500      -17369.8643  -17370.2349       0.3706   318.5
3.0000      -17369.9359  -17370.2804       0.3445   296.2
3.2500      -17370.0761  -17370.3428       0.2667   229.3
3.5000      -17369.9405  -17370.2979       0.3574   307.2
3.7500      -17370.0572  -17370.2760       0.2188   188.0
4.0000      -17369.6755  -17370.2636       0.5881   505.5
4.2500      -17370.0595  -17370.2703       0.2108   181.2
4.5000      -17369.7835  -17370.1578       0.3744   321.8
4.7500      -17370.0015  -17370.2346       0.2332   200.4
5.0000      -17369.9337  -17370.2573       0.3236   278.1
5.2500      -17369.8205  -17370.2126       0.3921   337.0
5.5000      -17369.9547  -17370.2253       0.2706   232.6
5.7500      -17369.9514  -17370.2932       0.3419   293.9
6.0000      -17369.9701  -17370.2543       0.2842   244.3
6.2500      -17370.0124  -17370.2978       0.2854   245.3
6.5000      -17369.9274  -17370.2980       0.3706   318.6
6.7500      -17369.9692  -17370.2688       0.2996   257.5
7.0000      -17370.1341  -17370.2925       0.1584   136.1
7.2500      -17369.7820  -17370.2482       0.4663   400.8
7.5000      -17369.9757  -17370.3436       0.3678   316.2
7.7500      -17369.8577  -17370.2412       0.3835   329.6
8.0000      -17369.8581  -17370.2560       0.3979   342.0
8.2500      -17369.8346  -17370.3052       0.4705   404.5
8.5000      -17369.9314  -17370.1908       0.2594   223.0
8.7500      -17369.8990  -17370.1817       0.2828   243.1
9.0000      -17369.9945  -17370.2053       0.2108   181.2
9.2500      -17369.8175  -17370.2886       0.4711   405.0
9.5000      -17369.9960  -17370.2404       0.2445   210.1
9.7500      -17369.9203  -17370.1292       0.2089   179.6
10.0000     -17369.9647  -17370.2646       0.3000   257.8
10.2500     -17369.8596  -17370.1820       0.3223   277.1
10.5000     -17369.8887  -17370.1911       0.3023   259.9
10.7500     -17369.9474  -17370.1402       0.1929   165.8
11.0000     -17369.7783  -17370.2025       0.4243   364.7
11.2500     -17369.9058  -17370.3031       0.3973   341.5
11.5000     -17369.9192  -17370.3120       0.3928   337.6
11.7500     -17369.9038  -17370.1557       0.2520   216.6
12.0000     -17369.9031  -17370.2964       0.3933   338.1
12.2500     -17369.8325  -17370.1734       0.3409   293.1
12.5000     -17369.7256  -17370.2374       0.5119   440.0
12.7500     -17369.9218  -17370.1600       0.2382   204.8
13.0000     -17369.8603  -17370.2635       0.4032   346.5
13.2500     -17369.9147  -17370.1370       0.2224   191.2
13.5000     -17370.0494  -17370.3087       0.2593   222.9
13.7500     -17370.0264  -17370.2934       0.2670   229.5
14.0000     -17369.9716  -17370.2852       0.3135   269.5
14.2500     -17369.8917  -17370.2097       0.3180   273.4
14.5000     -17369.8824  -17370.1363       0.2540   218.3
14.7500     -17369.8781  -17370.2006       0.3226   277.3
15.0000     -17369.9892  -17370.2361       0.2469   212.2
15.2500     -17369.9549  -17370.1878       0.2329   200.2
15.5000     -17369.8258  -17370.2932       0.4674   401.7
15.7500     -17369.8225  -17370.1214       0.2989   256.9
16.0000     -17369.8331  -17370.1948       0.3618   311.0
16.2500     -17369.7688  -17370.1713       0.4025   345.9
16.5000     -17369.7363  -17370.0714       0.3350   288.0
16.7500     -17369.9871  -17370.2842       0.2971   255.4
17.0000     -17369.9925  -17370.2681       0.2756   236.9
17.2500     -17369.8404  -17370.1056       0.2652   228.0
17.5000     -17369.7518  -17370.1739       0.4221   362.8
17.7500     -17369.9629  -17370.2949       0.3320   285.4
18.0000     -17369.9186  -17370.1716       0.2530   217.4
18.2500     -17369.7286  -17370.1458       0.4172   358.6
18.5000     -17369.7000  -17370.1890       0.4890   420.3
18.7500     -17369.9142  -17370.2368       0.3226   277.3
19.0000     -17369.7588  -17370.1760       0.4171   358.6
19.2500     -17369.8681  -17370.1726       0.3045   261.8
19.5000     -17370.0176  -17370.2928       0.2752   236.6
19.7500     -17369.9560  -17370.2442       0.2883   247.8
20.0000     -17370.0567  -17370.3087       0.2519   216.6
20.2500     -17370.0946  -17370.2768       0.1822   156.6
20.5000     -17369.8332  -17370.2661       0.4329   372.1
20.7500     -17369.8356  -17370.2055       0.3699   318.0
21.0000     -17369.7431  -17370.1525       0.4093   351.9
21.2500     -17369.5981  -17370.2023       0.6042   519.4
21.5000     -17370.0262  -17370.2709       0.2447   210.3
21.7500     -17369.8117  -17370.2466       0.4349   373.8
22.0000     -17370.0422  -17370.2780       0.2358   202.7
22.2500     -17369.9124  -17370.1908       0.2784   239.3
22.5000     -17369.9320  -17370.2337       0.3017   259.3
22.7500     -17369.9184  -17370.1437       0.2252   193.6
23.0000     -17369.8715  -17370.2245       0.3529   303.4
23.2500     -17369.7610  -17370.1148       0.3538   304.1
23.5000     -17369.9435  -17370.1974       0.2539   218.3
23.7500     -17370.0540  -17370.3293       0.2753   236.7
24.0000     -17369.9339  -17370.2044       0.2705   232.5
24.2500     -17370.0637  -17370.2706       0.2069   177.9
24.5000     -17370.0166  -17370.2734       0.2568   220.8
24.7500     -17369.8859  -17370.2323       0.3464   297.8
25.0000     -17369.7956  -17370.1829       0.3874   333.0
25.2500     -17369.8532  -17370.1704       0.3172   272.7
25.5000     -17369.8803  -17370.2667       0.3864   332.2
25.7500     -17369.9273  -17370.2347       0.3075   264.3
26.0000     -17369.7681  -17370.2844       0.5162   443.8
26.2500     -17370.0217  -17370.2941       0.2723   234.1
26.5000     -17369.8023  -17370.1935       0.3913   336.3
26.7500     -17369.9131  -17370.3570       0.4439   381.5
27.0000     -17369.7216  -17370.1858       0.4642   399.0
27.2500     -17369.8848  -17370.2691       0.3843   330.3
27.5000     -17370.0161  -17370.3224       0.3063   263.3
27.7500     -17369.9337  -17370.2142       0.2805   241.1
28.0000     -17370.0914  -17370.3073       0.2159   185.6
28.2500     -17370.1077  -17370.2589       0.1512   130.0
28.5000     -17369.8186  -17370.2361       0.4175   358.9
28.7500     -17369.7425  -17370.0751       0.3327   286.0
29.0000     -17369.6578  -17370.2657       0.6079   522.5
29.2500     -17369.9893  -17370.2736       0.2843   244.4
29.5000     -17370.0463  -17370.3832       0.3369   289.6
29.7500     -17370.0718  -17370.3231       0.2513   216.0
30.0000     -17369.9585  -17370.2588       0.3004   258.2
30.2500     -17370.0306  -17370.2845       0.2540   218.3
30.5000     -17369.8316  -17370.2388       0.4072   350.0
30.7500     -17369.9840  -17370.2771       0.2931   252.0
31.0000     -17369.7540  -17370.0939       0.3399   292.2
31.2500     -17369.8852  -17370.2084       0.3233   277.9
31.5000     -17369.8514  -17370.2034       0.3520   302.6
31.7500     -17370.0032  -17370.3050       0.3017   259.4
32.0000     -17369.7445  -17370.3010       0.5566   478.4
32.2500     -17369.8609  -17370.1670       0.3061   263.2
32.5000     -17369.7401  -17370.0690       0.3289   282.7
32.7500     -17369.7573  -17370.1814       0.4240   364.5
33.0000     -17369.6189  -17370.1790       0.5601   481.5
33.2500     -17369.9335  -17370.1928       0.2593   222.9
33.5000     -17369.8830  -17370.2363       0.3533   303.7
33.7500     -17369.7861  -17370.1883       0.4021   345.7
34.0000     -17369.8061  -17370.1813       0.3752   322.5
34.2500     -17369.8229  -17370.1093       0.2864   246.2
34.5000     -17369.8767  -17370.1921       0.3155   271.2
34.7500     -17369.7167  -17370.1643       0.4476   384.8
35.0000     -17369.6369  -17370.1775       0.5406   464.7
35.2500     -17369.8850  -17370.2285       0.3435   295.2
35.5000     -17369.7534  -17370.1597       0.4063   349.3
35.7500     -17369.9060  -17370.2167       0.3107   267.0
36.0000     -17369.8424  -17370.2681       0.4257   365.9
36.2500     -17369.8983  -17370.3316       0.4334   372.5
36.5000     -17369.8510  -17370.1953       0.3443   296.0
36.7500     -17369.9529  -17370.1478       0.1949   167.6
37.0000     -17370.0343  -17370.2609       0.2266   194.8
37.2500     -17369.6616  -17370.1286       0.4670   401.4
37.5000     -17369.9105  -17370.1899       0.2794   240.1
37.7500     -17369.5683  -17370.0567       0.4884   419.8
38.0000     -17369.9647  -17370.1730       0.2084   179.1
38.2500     -17369.8928  -17370.2094       0.3166   272.2
38.5000     -17369.9755  -17370.2298       0.2542   218.5
38.7500     -17369.9699  -17370.2685       0.2985   256.6
39.0000     -17370.0011  -17370.2597       0.2586   222.3
39.2500     -17369.9026  -17370.2713       0.3687   316.9
39.5000     -17369.9102  -17370.2276       0.3174   272.8
39.7500     -17369.7800  -17370.2805       0.5005   430.2
40.0000     -17370.0185  -17370.2954       0.2769   238.0
