Time[ps]      Etot[eV]     Epot[eV]     Ekin[eV]    T[K]
0.0000      -17370.1631  -17370.4124       0.2492   214.2
0.2500      -17370.1370  -17370.3241       0.1870   160.8
0.5000      -17369.8196  -17370.2792       0.4596   395.0
0.7500      -17369.9535  -17370.2551       0.3015   259.2
1.0000      -17369.7738  -17370.1166       0.3428   294.6
1.2500      -17369.9112  -17370.1501       0.2389   205.4
1.5000      -17370.0139  -17370.3728       0.3589   308.5
1.7500      -17370.4800  -17370.9085       0.4285   368.3
2.0000      -17371.2130  -17371.4620       0.2489   214.0
2.2500      -17371.6861  -17372.0269       0.3408   292.9
2.5000      -17371.7229  -17372.0273       0.3043   261.6
2.7500      -17371.9456  -17372.1163       0.1707   146.7
3.0000      -17371.6619  -17372.1270       0.4652   399.9
3.2500      -17371.5056  -17371.7855       0.2800   240.7
3.5000      -17371.7383  -17371.9709       0.2326   199.9
3.7500      -17371.6403  -17372.0637       0.4234   363.9
4.0000      -17371.5765  -17371.9555       0.3790   325.7
4.2500      -17371.6535  -17371.9746       0.3211   276.0
4.5000      -17371.7081  -17372.1402       0.4321   371.4
4.7500      -17371.5354  -17371.9681       0.4328   372.0
5.0000      -17371.7279  -17372.0024       0.2745   235.9
5.2500      -17371.6238  -17371.9447       0.3209   275.9
5.5000      -17371.6906  -17372.0796       0.3890   334.4
5.7500      -17371.8294  -17372.1030       0.2737   235.2
6.0000      -17371.5907  -17372.0689       0.4781   411.0
6.2500      -17371.8918  -17372.0302       0.1384   119.0
6.5000      -17371.7491  -17372.0105       0.2614   224.7
6.7500      -17371.7509  -17372.0539       0.3030   260.5
7.0000      -17371.6643  -17372.1344       0.4701   404.1
7.2500      -17371.5153  -17371.8896       0.3743   321.7
7.5000      -17371.6729  -17372.1442       0.4713   405.1
7.7500      -17371.6685  -17371.9849       0.3164   271.9
8.0000      -17371.5327  -17371.9795       0.4469   384.1
8.2500      -17371.8912  -17372.1246       0.2335   200.7
8.5000      -17371.7851  -17372.0064       0.2213   190.2
8.7500      -17371.7092  -17372.0381       0.3289   282.7
9.0000      -17371.7428  -17372.1075       0.3647   313.5
9.2500      -17371.7372  -17372.0581       0.3209   275.8
9.5000      -17371.6591  -17372.0421       0.3829   329.2
9.7500      -17371.6560  -17371.9591       0.3031   260.6
10.0000     -17371.6199  -17371.9950       0.3751   322.4
10.2500     -17371.4235  -17371.9055       0.4821   414.4
10.5000     -17371.6883  -17371.9465       0.2582   222.0
10.7500     -17371.7052  -17372.0731       0.3678   316.2
11.0000     -17371.7712  -17372.1102       0.3391   291.5
11.2500     -17371.7915  -17372.0372       0.2457   211.2
11.5000     -17371.6302  -17371.9944       0.3642   313.0
11.7500     -17371.8418  -17372.0671       0.2253   193.7
12.0000     -17371.7051  -17371.9977       0.2926   251.5
12.2500     -17371.7123  -17372.0745       0.3622   311.4
12.5000     -17371.7892  -17372.0640       0.2748   236.2
12.7500     -17371.7550  -17372.0044       0.2494   214.4
13.0000     -17371.7195  -17371.9305       0.2110   181.4
13.2500     -17371.5749  -17372.0201       0.4453   382.7
13.5000     -17371.8187  -17372.1181       0.2994   257.3
13.7500     -17371.6610  -17371.9693       0.3083   265.0
14.0000     -17371.5052  -17371.8575       0.3523   302.9
14.2500     -17371.8234  -17372.1189       0.2956   254.1
14.5000     -17371.8338  -17372.0370       0.2032   174.7
14.7500     -17371.6608  -17372.0305       0.3697   317.8
15.0000     -17371.6096  -17371.8887       0.2791   239.9
15.2500     -17371.7981  -17372.1573       0.3592   308.8
15.5000     -17371.7422  -17371.9861       0.2439   209.7
15.7500     -17371.6622  -17371.9210       0.2588   222.5
16.0000     -17371.5967  -17371.9194       0.3226   277.3
16.2500     -17371.4895  -17371.9115       0.4220   362.7
16.5000     -17371.7119  -17371.9728       0.2609   224.2
16.7500     -17371.7906  -17372.0037       0.2131   183.2
17.0000     -17371.9226  -17372.1529       0.2303   198.0
17.2500     -17371.7337  -17372.0137       0.2800   240.7
17.5000     -17371.8386  -17372.1452       0.3065   263.5
17.7500     -17371.5183  -17371.8758       0.3575   307.3
18.0000     -17371.6377  -17371.9921       0.3543   304.6
18.2500     -17371.8808  -17372.0839       0.2031   174.6
18.5000     -17371.5297  -17371.9772       0.4475   384.6
18.7500     -17371.8102  -17372.0387       0.2284   196.4
19.0000     -17371.4367  -17371.7014       0.2648   227.6
19.2500     -17371.6681  -17372.0588       0.3907   335.8
19.5000     -17371.7078  -17371.9548       0.2469   212.3
19.7500     -17371.6305  -17371.9833       0.3528   303.3
20.0000     -17371.7627  -17371.9546       0.1919   164.9
20.2500     -17371.5653  -17371.8221       0.2568   220.8
20.5000     -17371.7653  -17372.0867       0.3214   276.3
20.7500     -17371.8160  -17372.0036       0.1876   161.3
21.0000     -17371.4056  -17371.9144       0.5088   437.4
21.2500     -17371.6790  -17372.0255       0.3465   297.8
21.5000     -17371.7860  -17372.0261       0.2401   206.4
21.7500     -17371.7103  -17371.9842       0.2739   235.4
22.0000     -17371.6581  -17372.0168       0.3587   308.3
22.2500     -17371.5386  -17371.9636       0.4250   365.3
22.5000     -17371.6846  -17371.9853       0.3007   258.5
22.7500     -17371.7548  -17372.1001       0.3453   296.8
23.0000     -17371.4730  -17371.9419       0.4689   403.1
23.2500     -17371.6302  -17371.9130       0.2829   243.1
23.5000     -17371.3856  -17371.8936       0.5080   436.6
23.7500     -17371.6291  -17372.0868       0.4577   393.4
24.0000     -17371.7501  -17372.0029       0.2528   217.3
24.2500     -17371.6945  -17371.9737       0.2792   240.0
24.5000     -17371.6581  -17372.0015       0.3434   295.2
24.7500     -17371.7511  -17371.9595       0.2084   179.1
25.0000     -17371.6563  -17372.0625       0.4061   349.1
25.2500     -17371.8228  -17372.0724       0.2497   214.6
25.5000     -17371.6141  -17372.0343       0.4202   361.2
25.7500     -17371.6587  -17372.0160       0.3573   307.1
26.0000     -17371.6850  -17371.9789       0.2939   252.7
26.2500     -17371.5176  -17372.0972       0.5796   498.2
26.5000     -17371.6561  -17372.0775       0.4213   362.2
26.7500     -17371.7988  -17372.0347       0.2359   202.8
27.0000     -17371.5386  -17372.0371       0.4985   428.5
27.2500     -17371.6864  -17372.0601       0.3738   321.3
27.5000     -17371.5135  -17371.9252       0.4116   353.8
27.7500     -17371.7826  -17372.1313       0.3487   299.7
28.0000     -17371.7584  -17372.0318       0.2734   235.0
28.2500     -17371.9525  -17372.1621       0.2096   180.2
28.5000     -17371.7066  -17372.0897       0.3831   329.3
28.7500     -17371.6065  -17371.9701       0.3636   312.5
29.0000     -17371.8175  -17372.1499       0.3324   285.7
29.2500     -17371.6809  -17372.0220       0.3411   293.2
29.5000     -17371.6796  -17372.0238       0.3442   295.9
29.7500     -17371.6661  -17371.9285       0.2625   225.6
30.0000     -17371.6259  -17372.0104       0.3845   330.5
30.2500     -17371.5388  -17371.9880       0.4492   386.1
30.5000     -17371.6772  -17371.9508       0.2736   235.2
30.7500     -17371.6696  -17372.0013       0.3316   285.1
31.0000     -17371.5847  -17371.9634       0.3787   325.5
31.2500     -17371.6024  -17371.9757       0.3733   320.9
31.5000     -17371.5619  -17371.9518       0.3899   335.2
31.7500     -17371.7563  -17372.0622       0.3059   263.0
32.0000     -17371.5664  -17371.8952       0.3288   282.6
32.2500     -17371.5174  -17371.8919       0.3745   321.9
32.5000     -17371.4585  -17371.7633       0.3048   262.0
32.7500     -17371.2745  -17371.7616       0.4872   418.8
33.0000     -17371.6531  -17371.9614       0.3083   265.0
33.2500     -17371.4894  -17371.8572       0.3678   316.2
33.5000     -17371.5932  -17371.9259       0.3326   285.9
33.7500     -17371.4086  -17371.8892       0.4806   413.1
34.0000     -17371.8218  -17372.0533       0.2314   198.9
34.2500     -17371.3094  -17371.7466       0.4373   375.9
34.5000     -17371.5497  -17371.9741       0.4244   364.8
34.7500     -17371.7327  -17371.9795       0.2468   212.2
35.0000     -17371.7229  -17372.0869       0.3640   312.9
35.2500     -17371.7096  -17372.0401       0.3305   284.1
35.5000     -17371.6717  -17371.9723       0.3006   258.4
35.7500     -17371.7396  -17372.1146       0.3750   322.3
36.0000     -17371.8774  -17372.0464       0.1690   145.3
36.2500     -17371.6532  -17371.9470       0.2937   252.5
36.5000     -17371.7781  -17372.1195       0.3414   293.5
36.7500     -17371.6831  -17372.0939       0.4108   353.1
37.0000     -17371.6901  -17371.9546       0.2645   227.4
37.2500     -17371.5668  -17371.8974       0.3305   284.1
37.5000     -17371.4886  -17371.9924       0.5038   433.1
37.7500     -17371.6662  -17372.0881       0.4218   362.6
38.0000     -17371.5703  -17371.9487       0.3784   325.3
38.2500     -17371.6203  -17371.9290       0.3087   265.4
38.5000     -17371.5392  -17371.9270       0.3878   333.3
38.7500     -17371.3773  -17371.8821       0.5048   433.9
39.0000     -17371.6065  -17371.9371       0.3306   284.2
39.2500     -17371.5069  -17371.8774       0.3704   318.4
39.5000     -17371.4591  -17372.0171       0.5580   479.7
39.7500     -17371.6414  -17372.0048       0.3634   312.4
40.0000     -17371.7005  -17371.9499       0.2494   214.4
