Time[ps]      Etot[eV]     Epot[eV]     Ekin[eV]    T[K]
0.0000      -17370.1279  -17370.4124       0.2845   244.6
0.2500      -17369.8760  -17370.2997       0.4237   364.2
0.5000      -17370.0196  -17370.2861       0.2665   229.1
0.7500      -17369.8189  -17370.2336       0.4147   356.5
1.0000      -17369.9660  -17370.2976       0.3317   285.1
1.2500      -17369.6660  -17370.1958       0.5298   455.4
1.5000      -17369.8367  -17370.2059       0.3692   317.4
1.7500      -17369.9909  -17370.1643       0.1734   149.1
2.0000      -17369.9556  -17370.2059       0.2503   215.1
2.2500      -17369.8073  -17370.2191       0.4118   354.0
2.5000      -17370.1923  -17370.4220       0.2297   197.5
2.7500      -17370.1495  -17370.4389       0.2894   248.8
3.0000      -17369.9176  -17370.2994       0.3818   328.2
3.2500      -17370.0118  -17370.3643       0.3525   303.0
3.5000      -17370.0127  -17370.3827       0.3700   318.1
3.7500      -17370.0049  -17370.2808       0.2758   237.1
4.0000      -17370.0561  -17370.3176       0.2615   224.8
4.2500      -17369.9155  -17370.3125       0.3970   341.3
4.5000      -17369.7568  -17370.2646       0.5078   436.5
4.7500      -17370.0999  -17370.3309       0.2311   198.6
5.0000      -17369.7209  -17370.2666       0.5457   469.1
5.2500      -17369.9935  -17370.4053       0.4118   354.0
5.5000      -17369.8893  -17370.3261       0.4368   375.5
5.7500      -17370.1197  -17370.3849       0.2652   228.0
6.0000      -17369.9556  -17370.3010       0.3454   296.9
6.2500      -17370.0001  -17370.3569       0.3567   306.6
6.5000      -17370.0216  -17370.3682       0.3465   297.9
6.7500      -17369.9803  -17370.2838       0.3034   260.8
7.0000      -17369.9168  -17370.2924       0.3756   322.9
7.2500      -17369.8714  -17370.1256       0.2542   218.5
7.5000      -17369.8924  -17370.3167       0.4244   364.8
7.7500      -17369.9734  -17370.2850       0.3116   267.9
8.0000      -17369.9808  -17370.3543       0.3735   321.1
8.2500      -17369.9795  -17370.2971       0.3176   273.0
8.5000      -17369.9303  -17370.2185       0.2882   247.7
8.7500      -17369.8199  -17370.2710       0.4512   387.8
9.0000      -17369.9151  -17370.2348       0.3197   274.8
9.2500      -17369.7854  -17370.2441       0.4587   394.3
9.5000      -17369.9101  -17370.2725       0.3624   311.5
9.7500      -17370.0194  -17370.3599       0.3405   292.7
10.0000     -17369.8884  -17370.3022       0.4138   355.7
10.2500     -17369.9829  -17370.3594       0.3765   323.6
10.5000     -17369.9979  -17370.2807       0.2828   243.1
10.7500     -17369.8561  -17370.2686       0.4124   354.5
11.0000     -17369.8923  -17370.2994       0.4071   350.0
11.2500     -17369.9932  -17370.3121       0.3189   274.1
11.5000     -17370.0573  -17370.3201       0.2629   226.0
11.7500     -17370.1794  -17370.3359       0.1565   134.5
12.0000     -17369.9573  -17370.4152       0.4579   393.6
12.2500     -17370.0137  -17370.3209       0.3073   264.1
12.5000     -17369.9547  -17370.2780       0.3232   277.9
12.7500     -17370.0088  -17370.3097       0.3008   258.6
13.0000     -17370.0850  -17370.3955       0.3105   266.9
13.2500     -17370.0397  -17370.3226       0.2829   243.2
13.5000     -17369.9603  -17370.3026       0.3423   294.2
13.7500     -17369.9274  -17370.2958       0.3684   316.7
14.0000     -17369.8257  -17370.3117       0.4859   417.7
14.2500     -17369.8658  -17370.3382       0.4724   406.0
14.5000     -17369.9077  -17370.1997       0.2920   251.0
14.7500     -17369.9323  -17370.2700       0.3376   290.2
15.0000     -17370.0557  -17370.3873       0.3316   285.0
15.2500     -17369.9124  -17370.2189       0.3065   263.5
15.5000     -17369.8323  -17370.2074       0.3750   322.4
15.7500     -17370.0238  -17370.3484       0.3245   279.0
16.0000     -17369.9349  -17370.2327       0.2979   256.0
16.2500     -17369.7768  -17370.1747       0.3979   342.0
16.5000     -17369.8190  -17370.2501       0.4311   370.6
16.7500     -17370.0758  -17370.3278       0.2520   216.6
17.0000     -17369.7308  -17370.2740       0.5432   466.9
17.2500     -17369.8774  -17370.3046       0.4272   367.2
17.5000     -17370.0121  -17370.3210       0.3088   265.5
17.7500     -17370.0091  -17370.3388       0.3297   283.4
18.0000     -17370.0087  -17370.2263       0.2176   187.0
18.2500     -17369.8509  -17370.3384       0.4875   419.1
18.5000     -17369.9678  -17370.2800       0.3122   268.4
18.7500     -17369.9123  -17370.3039       0.3916   336.6
19.0000     -17370.0571  -17370.3365       0.2793   240.1
19.2500     -17369.9849  -17370.2802       0.2954   253.9
19.5000     -17369.8503  -17370.2189       0.3686   316.8
19.7500     -17370.0513  -17370.3264       0.2751   236.5
20.0000     -17369.9181  -17370.3488       0.4307   370.2
20.2500     -17369.8045  -17370.0997       0.2953   253.8
20.5000     -17369.8755  -17370.3738       0.4983   428.3
20.7500     -17369.8496  -17370.2017       0.3521   302.7
21.0000     -17369.9746  -17370.3232       0.3486   299.6
21.2500     -17370.0539  -17370.2876       0.2337   200.9
21.5000     -17369.9172  -17370.4383       0.5211   447.9
21.7500     -17369.9336  -17370.3494       0.4158   357.4
22.0000     -17369.8969  -17370.3070       0.4101   352.5
22.2500     -17369.8922  -17370.2218       0.3297   283.4
22.5000     -17369.8743  -17370.2924       0.4181   359.4
22.7500     -17369.9687  -17370.3022       0.3335   286.7
23.0000     -17370.0825  -17370.3513       0.2688   231.1
23.2500     -17369.7033  -17370.1809       0.4776   410.6
23.5000     -17369.9335  -17370.2264       0.2929   251.8
23.7500     -17370.0134  -17370.3282       0.3147   270.6
24.0000     -17369.9162  -17370.2624       0.3463   297.6
24.2500     -17370.0188  -17370.2891       0.2704   232.4
24.5000     -17369.9963  -17370.2976       0.3013   259.0
24.7500     -17369.9237  -17370.1926       0.2689   231.2
25.0000     -17369.9320  -17370.3354       0.4034   346.8
25.2500     -17369.9893  -17370.2866       0.2973   255.6
25.5000     -17369.9435  -17370.2739       0.3304   284.0
25.7500     -17369.8791  -17370.3355       0.4563   392.3
26.0000     -17370.0384  -17370.2963       0.2579   221.7
26.2500     -17370.0660  -17370.3504       0.2845   244.5
26.5000     -17369.5639  -17370.1342       0.5704   490.3
26.7500     -17369.9877  -17370.3292       0.3414   293.5
27.0000     -17370.0199  -17370.2097       0.1897   163.1
27.2500     -17370.0016  -17370.3836       0.3819   328.3
27.5000     -17369.8943  -17370.3342       0.4398   378.1
27.7500     -17369.7710  -17370.2880       0.5171   444.5
28.0000     -17369.8463  -17370.2943       0.4480   385.1
28.2500     -17369.9925  -17370.3043       0.3118   268.0
28.5000     -17369.9052  -17370.2914       0.3862   331.9
28.7500     -17369.7857  -17370.1810       0.3953   339.8
29.0000     -17370.0891  -17370.3747       0.2856   245.5
29.2500     -17369.9812  -17370.2562       0.2751   236.4
29.5000     -17369.9918  -17370.2906       0.2988   256.8
29.7500     -17369.7439  -17370.2414       0.4975   427.7
30.0000     -17369.9493  -17370.2768       0.3275   281.5
30.2500     -17370.0253  -17370.2851       0.2598   223.3
30.5000     -17369.9717  -17370.3366       0.3649   313.6
30.7500     -17369.8479  -17370.2677       0.4197   360.8
31.0000     -17369.7339  -17370.3252       0.5912   508.2
31.2500     -17369.8782  -17370.3734       0.4952   425.7
31.5000     -17369.5276  -17370.1524       0.6248   537.1
31.7500     -17369.7700  -17370.3239       0.5538   476.1
32.0000     -17369.8953  -17370.3412       0.4460   383.4
32.2500     -17369.9914  -17370.3455       0.3540   304.3
32.5000     -17369.7892  -17370.1953       0.4061   349.1
32.7500     -17370.0019  -17370.2757       0.2737   235.3
33.0000     -17369.7268  -17370.2727       0.5459   469.2
33.2500     -17369.7005  -17370.2794       0.5789   497.6
33.5000     -17369.8787  -17370.2086       0.3299   283.6
33.7500     -17369.9522  -17370.2256       0.2734   235.0
34.0000     -17369.9588  -17370.2429       0.2841   244.2
34.2500     -17370.0150  -17370.2963       0.2813   241.8
34.5000     -17369.6728  -17370.0660       0.3932   338.0
34.7500     -17369.9349  -17370.2649       0.3299   283.6
35.0000     -17369.8230  -17370.1360       0.3131   269.1
35.2500     -17369.9939  -17370.2070       0.2131   183.2
35.5000     -17369.8617  -17370.2106       0.3489   299.9
35.7500     -17369.9537  -17370.1959       0.2422   208.2
36.0000     -17369.8796  -17370.2727       0.3931   337.9
36.2500     -17369.8152  -17370.1719       0.3567   306.6
36.5000     -17370.0840  -17370.2662       0.1821   156.6
36.7500     -17370.0337  -17370.3477       0.3140   269.9
37.0000     -17370.0913  -17370.3287       0.2374   204.1
37.2500     -17369.8379  -17370.3130       0.4751   408.4
37.5000     -17370.0999  -17370.2898       0.1899   163.2
37.7500     -17369.7163  -17370.1109       0.3947   339.3
38.0000     -17370.0578  -17370.3043       0.2465   211.9
38.2500     -17369.8648  -17370.2590       0.3942   338.9
38.5000     -17369.9536  -17370.2582       0.3046   261.8
38.7500     -17369.7019  -17370.1313       0.4294   369.1
39.0000     -17369.8148  -17370.0167       0.2018   173.5
39.2500     -17369.6285  -17370.0387       0.4102   352.6
39.5000     -17369.8464  -17370.1968       0.3504   301.2
39.7500     -17369.6217  -17370.0744       0.4527   389.1
40.0000     -17369.8421  -17370.3199       0.4777   410.7
