Time[ps]      Etot[eV]     Epot[eV]     Ekin[eV]    T[K]
0.0000      -17369.9157  -17370.4124       0.4967   427.0
0.2500      -17370.0454  -17370.3231       0.2776   238.7
0.5000      -17370.1366  -17370.3689       0.2322   199.6
0.7500      -17370.0111  -17370.3606       0.3495   300.5
1.0000      -17369.9611  -17370.3382       0.3770   324.1
1.2500      -17369.8904  -17370.3038       0.4134   355.4
1.5000      -17369.8571  -17370.1934       0.3362   289.0
1.7500      -17369.9111  -17370.1800       0.2689   231.1
2.0000      -17369.8203  -17370.2228       0.4025   346.0
2.2500      -17369.5750  -17369.9571       0.3821   328.5
2.5000      -17369.7366  -17370.0388       0.3023   259.8
2.7500      -17369.6187  -17369.9766       0.3579   307.6
3.0000      -17369.6591  -17369.8754       0.2164   186.0
3.2500      -17369.4775  -17369.8940       0.4165   358.0
3.5000      -17369.4070  -17369.9265       0.5196   446.6
3.7500      -17369.4577  -17369.9135       0.4558   391.8
4.0000      -17369.6422  -17369.9698       0.3275   281.5
4.2500      -17369.5074  -17369.8817       0.3743   321.7
4.5000      -17369.7711  -17370.0838       0.3126   268.7
4.7500      -17369.4786  -17369.9808       0.5022   431.7
5.0000      -17369.6911  -17369.9186       0.2275   195.6
5.2500      -17369.7160  -17370.0678       0.3519   302.5
5.5000      -17369.5615  -17370.0358       0.4742   407.7
5.7500      -17369.7426  -17370.0753       0.3327   286.0
6.0000      -17369.5542  -17370.0396       0.4855   417.3
6.2500      -17369.8244  -17370.0650       0.2406   206.8
6.5000      -17369.5761  -17370.0517       0.4757   408.9
6.7500      -17369.8173  -17370.1013       0.2840   244.1
7.0000      -17369.5868  -17369.9825       0.3956   340.1
7.2500      -17369.6993  -17369.9129       0.2136   183.6
7.5000      -17369.2995  -17369.8700       0.5705   490.4
7.7500      -17369.7242  -17369.9999       0.2757   237.0
8.0000      -17369.4278  -17369.9637       0.5359   460.6
8.2500      -17369.6128  -17369.8872       0.2744   235.9
8.5000      -17369.6830  -17369.9989       0.3159   271.5
8.7500      -17369.5629  -17369.8993       0.3364   289.2
9.0000      -17369.7314  -17370.0168       0.2854   245.3
9.2500      -17369.6826  -17369.9948       0.3122   268.4
9.5000      -17369.5706  -17369.9975       0.4269   367.0
9.7500      -17369.6629  -17369.9841       0.3212   276.1
10.0000     -17369.7854  -17370.0562       0.2708   232.8
10.2500     -17369.6715  -17369.9833       0.3117   268.0
10.5000     -17369.7800  -17370.0034       0.2234   192.0
10.7500     -17369.7250  -17369.9718       0.2468   212.2
11.0000     -17369.8061  -17370.0699       0.2638   226.8
11.2500     -17369.8449  -17370.1230       0.2781   239.0
11.5000     -17369.6657  -17369.9717       0.3060   263.0
11.7500     -17369.5519  -17369.8739       0.3220   276.8
12.0000     -17369.6067  -17370.0872       0.4805   413.0
12.2500     -17369.9218  -17370.1948       0.2730   234.7
12.5000     -17369.8127  -17370.0682       0.2555   219.6
12.7500     -17369.7300  -17370.0312       0.3012   258.9
13.0000     -17369.7751  -17370.2155       0.4405   378.6
13.2500     -17369.5623  -17369.9908       0.4285   368.4
13.5000     -17369.8619  -17369.9852       0.1233   106.0
13.7500     -17369.5513  -17370.0404       0.4891   420.4
14.0000     -17369.5773  -17370.0049       0.4275   367.5
14.2500     -17369.8347  -17370.2155       0.3808   327.3
14.5000     -17369.5027  -17369.9717       0.4691   403.2
14.7500     -17369.7146  -17370.0546       0.3401   292.3
15.0000     -17369.7606  -17370.0527       0.2921   251.1
15.2500     -17369.7366  -17370.1526       0.4159   357.5
15.5000     -17369.7052  -17370.1364       0.4312   370.6
15.7500     -17369.8630  -17370.0634       0.2004   172.2
16.0000     -17369.4910  -17369.9824       0.4915   422.5
16.2500     -17369.6174  -17369.9477       0.3303   283.9
16.5000     -17369.5440  -17370.1419       0.5979   513.9
16.7500     -17369.5761  -17369.8968       0.3207   275.7
17.0000     -17369.6407  -17370.0638       0.4231   363.7
17.2500     -17369.7281  -17369.9999       0.2718   233.7
17.5000     -17369.6943  -17370.0260       0.3317   285.1
17.7500     -17369.7794  -17370.0514       0.2720   233.8
18.0000     -17369.5496  -17370.0995       0.5499   472.7
18.2500     -17369.5667  -17370.0790       0.5123   440.4
18.5000     -17369.4953  -17369.8472       0.3519   302.5
18.7500     -17369.4088  -17370.0141       0.6053   520.3
19.0000     -17369.6210  -17370.0716       0.4506   387.3
19.2500     -17369.8958  -17370.2150       0.3192   274.3
19.5000     -17369.6599  -17370.0161       0.3562   306.2
19.7500     -17369.7979  -17370.0121       0.2142   184.1
20.0000     -17369.7764  -17370.0376       0.2612   224.6
20.2500     -17369.7038  -17370.0971       0.3932   338.0
20.5000     -17369.9629  -17370.1758       0.2129   183.0
20.7500     -17369.5968  -17370.0093       0.4126   354.6
21.0000     -17369.7153  -17370.1502       0.4349   373.8
21.2500     -17369.7166  -17370.0333       0.3167   272.2
21.5000     -17369.8652  -17370.0963       0.2311   198.7
21.7500     -17369.7470  -17370.1281       0.3811   327.6
22.0000     -17369.4939  -17370.0465       0.5526   475.0
22.2500     -17369.8101  -17370.1788       0.3687   316.9
22.5000     -17369.9471  -17370.1801       0.2330   200.3
22.7500     -17369.6132  -17370.1020       0.4888   420.2
23.0000     -17369.7698  -17370.0345       0.2648   227.6
23.2500     -17369.6080  -17370.1468       0.5388   463.2
23.5000     -17369.8455  -17370.1263       0.2808   241.3
23.7500     -17369.4652  -17369.9745       0.5093   437.8
24.0000     -17369.8538  -17370.1389       0.2851   245.1
24.2500     -17369.5851  -17370.1099       0.5248   451.1
24.5000     -17369.9180  -17370.2126       0.2946   253.3
24.7500     -17369.8517  -17370.1004       0.2487   213.8
25.0000     -17369.7570  -17370.0839       0.3269   281.0
25.2500     -17369.5865  -17370.1561       0.5696   489.6
25.5000     -17369.6633  -17370.0565       0.3933   338.0
25.7500     -17369.7290  -17370.1207       0.3917   336.7
26.0000     -17369.7930  -17370.1177       0.3248   279.2
26.2500     -17369.8755  -17370.1544       0.2789   239.8
26.5000     -17370.0209  -17370.2406       0.2197   188.8
26.7500     -17369.6129  -17369.9848       0.3719   319.6
27.0000     -17369.3635  -17369.8606       0.4970   427.2
27.2500     -17369.5786  -17369.9732       0.3947   339.3
27.5000     -17369.8488  -17370.1874       0.3386   291.1
27.7500     -17369.6600  -17369.9225       0.2626   225.7
28.0000     -17369.6355  -17370.0901       0.4546   390.8
28.2500     -17369.6511  -17369.9911       0.3400   292.3
28.5000     -17369.7212  -17370.0438       0.3227   277.4
28.7500     -17369.7850  -17370.0603       0.2754   236.7
29.0000     -17369.7954  -17370.1403       0.3449   296.4
29.2500     -17369.8895  -17370.1457       0.2562   220.3
29.5000     -17369.8538  -17370.0594       0.2056   176.7
29.7500     -17369.8470  -17370.0829       0.2359   202.8
30.0000     -17369.8179  -17370.0926       0.2747   236.1
30.2500     -17369.8020  -17370.1178       0.3158   271.5
30.5000     -17369.8104  -17370.0864       0.2760   237.3
30.7500     -17369.5145  -17370.0154       0.5009   430.5
31.0000     -17369.6405  -17370.1700       0.5294   455.1
31.2500     -17369.5166  -17370.0501       0.5335   458.6
31.5000     -17369.6977  -17370.0143       0.3166   272.1
31.7500     -17369.5272  -17370.0696       0.5423   466.2
32.0000     -17369.7998  -17370.0891       0.2892   248.6
32.2500     -17369.7029  -17370.1042       0.4013   344.9
32.5000     -17369.8266  -17370.0651       0.2385   205.0
32.7500     -17369.8244  -17370.1010       0.2767   237.8
33.0000     -17369.6374  -17370.0785       0.4411   379.2
33.2500     -17369.6672  -17370.0397       0.3725   320.2
33.5000     -17369.6842  -17370.0865       0.4023   345.8
33.7500     -17369.6790  -17369.9998       0.3209   275.8
34.0000     -17369.7594  -17370.0590       0.2996   257.5
34.2500     -17369.7477  -17370.1622       0.4145   356.3
34.5000     -17369.5825  -17369.9437       0.3612   310.5
34.7500     -17369.7111  -17370.0095       0.2984   256.5
35.0000     -17369.2515  -17369.8060       0.5545   476.6
35.2500     -17369.6512  -17370.0218       0.3705   318.5
35.5000     -17369.9316  -17370.2399       0.3083   265.0
35.7500     -17370.0955  -17370.1897       0.0941    80.9
36.0000     -17369.8068  -17370.1177       0.3108   267.2
36.2500     -17369.8158  -17370.0803       0.2645   227.3
36.5000     -17369.7881  -17370.0086       0.2205   189.5
36.7500     -17369.5608  -17370.1132       0.5523   474.8
37.0000     -17369.5736  -17370.0554       0.4818   414.2
37.2500     -17369.6916  -17369.9094       0.2178   187.2
37.5000     -17370.0198  -17370.1426       0.1227   105.5
37.7500     -17369.7706  -17370.2027       0.4321   371.4
38.0000     -17369.7692  -17370.1601       0.3909   336.0
38.2500     -17369.6892  -17369.9676       0.2784   239.3
38.5000     -17369.6737  -17370.0650       0.3914   336.4
38.7500     -17369.7220  -17370.0916       0.3696   317.7
39.0000     -17370.0212  -17370.2487       0.2275   195.6
39.2500     -17369.6616  -17370.1321       0.4705   404.4
39.5000     -17369.5492  -17369.9629       0.4136   355.6
39.7500     -17369.9523  -17370.2152       0.2630   226.0
40.0000     -17369.5066  -17369.8970       0.3904   335.6
